50mtorr70W
Integration time [ms]: 200,000
Averaging Nr. [scans]: 100
Smoothing Nr. [pixels]: 0
Data measured with spectrometer [name]: 1004020U2
Wave   ;Sample   ;Dark     ;Reference;Scope
[nm]   ;[counts] ;[counts] ;[counts] 

 713,08;  -41,070;    0,000;    0,000
 713,14;  -33,850;    0,000;    0,000
 713,21;  217,350;    0,000;    0,000
 713,28;   57,580;    0,000;    0,000
 713,34;   63,720;    0,000;    0,000
 713,41;  -21,560;    0,000;    0,000
 713,48;   54,310;    0,000;    0,000
 713,54;  -18,350;    0,000;    0,000
 713,61;   78,280;    0,000;    0,000
 713,68;   35,160;    0,000;    0,000
 713,74;    0,990;    0,000;    0,000
 713,81;  -37,210;    0,000;    0,000
 713,88;   22,050;    0,000;    0,000
 713,94;    7,480;    0,000;    0,000
 714,01;  -27,240;    0,000;    0,000
 714,08;   39,470;    0,000;    0,000
 714,14;   41,930;    0,000;    0,000
 714,21;   41,240;    0,000;    0,000
 714,28;   90,420;    0,000;    0,000
 714,34;   -0,120;    0,000;    0,000
 714,41;  -14,640;    0,000;    0,000
 714,47;    8,640;    0,000;    0,000
 714,54;   47,090;    0,000;    0,000
 714,61;  -47,880;    0,000;    0,000
 714,67;   37,510;    0,000;    0,000
 714,74;   40,080;    0,000;    0,000
 714,81;  113,800;    0,000;    0,000
 714,87;   66,540;    0,000;    0,000
 714,94;    8,680;    0,000;    0,000
 715,01;   -9,180;    0,000;    0,000
 715,07;   89,510;    0,000;    0,000
 715,14;  -10,520;    0,000;    0,000
 715,21;  106,570;    0,000;    0,000
 715,27;    4,580;    0,000;    0,000
 715,34;   19,520;    0,000;    0,000
 715,41;   74,480;    0,000;    0,000
 715,47;   23,280;    0,000;    0,000
 715,54;   27,090;    0,000;    0,000
 715,60;   14,300;    0,000;    0,000
 715,67;  -29,630;    0,000;    0,000
 715,74;  213,020;    0,000;    0,000
 715,80;   45,720;    0,000;    0,000
 715,87;  150,650;    0,000;    0,000
 715,94;  138,250;    0,000;    0,000
 716,00;  -46,880;    0,000;    0,000
 716,07;   17,030;    0,000;    0,000
 716,13;   32,760;    0,000;    0,000
 716,20;    1,760;    0,000;    0,000
 716,27;   78,750;    0,000;    0,000
 716,33;  -62,840;    0,000;    0,000
 716,40;   18,270;    0,000;    0,000
 716,47;   44,030;    0,000;    0,000
 716,53;  -18,860;    0,000;    0,000
 716,60;   45,270;    0,000;    0,000
 716,67;   -0,060;    0,000;    0,000
 716,73;   27,820;    0,000;    0,000
 716,80;   75,850;    0,000;    0,000
 716,86;   50,180;    0,000;    0,000
 716,93;    0,290;    0,000;    0,000
 717,00;   31,040;    0,000;    0,000
 717,06;   18,850;    0,000;    0,000
 717,13;  -19,040;    0,000;    0,000
 717,20;  167,220;    0,000;    0,000
 717,26;   47,930;    0,000;    0,000
 717,33;   -9,370;    0,000;    0,000
 717,39;   19,640;    0,000;    0,000
 717,46;   88,090;    0,000;    0,000
 717,53;  -11,070;    0,000;    0,000
 717,59;   81,960;    0,000;    0,000
 717,66;  -97,370;    0,000;    0,000
 717,72;   27,670;    0,000;    0,000
 717,79;   -1,630;    0,000;    0,000
 717,86;   36,960;    0,000;    0,000
 717,92;  -66,250;    0,000;    0,000
 717,99;   87,650;    0,000;    0,000
 718,06;   -9,110;    0,000;    0,000
 718,12;   16,580;    0,000;    0,000
 718,19;   19,450;    0,000;    0,000
 718,25;  104,750;    0,000;    0,000
 718,32;  -65,270;    0,000;    0,000
 718,39;   47,120;    0,000;    0,000
 718,45;   93,500;    0,000;    0,000
 718,52;   77,960;    0,000;    0,000
 718,58;  -23,120;    0,000;    0,000
 718,65;   87,910;    0,000;    0,000
 718,72;   37,950;    0,000;    0,000
 718,78;   29,740;    0,000;    0,000
 718,85;  -40,870;    0,000;    0,000
 718,92;   10,510;    0,000;    0,000
 718,98;  -32,170;    0,000;    0,000
 719,05;  142,910;    0,000;    0,000
 719,11;   42,730;    0,000;    0,000
 719,18;   85,050;    0,000;    0,000
 719,25;   -4,100;    0,000;    0,000
 719,31;   50,500;    0,000;    0,000
 719,38;   84,750;    0,000;    0,000
 719,44;  192,870;    0,000;    0,000
 719,51;   29,580;    0,000;    0,000
 719,58;  -28,760;    0,000;    0,000
 719,64;  -37,490;    0,000;    0,000
 719,71;  -30,490;    0,000;    0,000
 719,77;   46,620;    0,000;    0,000
 719,84;  164,560;    0,000;    0,000
 719,91;  -16,300;    0,000;    0,000
 719,97;  -30,760;    0,000;    0,000
 720,04;  -45,710;    0,000;    0,000
 720,10;   15,000;    0,000;    0,000
 720,17;   -5,000;    0,000;    0,000
 720,24;    5,410;    0,000;    0,000
 720,30;  -91,650;    0,000;    0,000
 720,37;  -23,510;    0,000;    0,000
 720,43;  -14,660;    0,000;    0,000
 720,50;   29,790;    0,000;    0,000
 720,56;  -63,210;    0,000;    0,000
 720,63;   66,070;    0,000;    0,000
 720,70;   61,200;    0,000;    0,000
 720,76;   76,780;    0,000;    0,000
 720,83;   20,710;    0,000;    0,000
 720,89;   75,980;    0,000;    0,000
 720,96;  172,290;    0,000;    0,000
 721,03;   45,620;    0,000;    0,000
 721,09;  -35,850;    0,000;    0,000
 721,16;   37,440;    0,000;    0,000
 721,22;  -22,830;    0,000;    0,000
 721,29;   30,780;    0,000;    0,000
 721,36;   13,380;    0,000;    0,000
 721,42;  -30,350;    0,000;    0,000
 721,49;    4,880;    0,000;    0,000
 721,55;   90,630;    0,000;    0,000
 721,62;  -47,470;    0,000;    0,000
 721,68;   13,490;    0,000;    0,000
 721,75;   12,420;    0,000;    0,000
 721,82;  -28,800;    0,000;    0,000
 721,88;    0,420;    0,000;    0,000
 721,95;   63,830;    0,000;    0,000
 722,01;   31,790;    0,000;    0,000
 722,08;   13,680;    0,000;    0,000
 722,14;  -92,620;    0,000;    0,000
 722,21;  -22,540;    0,000;    0,000
 722,28;  -73,590;    0,000;    0,000
 722,34;   72,010;    0,000;    0,000
 722,41; -108,540;    0,000;    0,000
 722,47;   13,780;    0,000;    0,000
 722,54;  117,520;    0,000;    0,000
 722,61;   42,960;    0,000;    0,000
 722,67;   14,400;    0,000;    0,000
 722,74;  386,940;    0,000;    0,000
 722,80;  -67,350;    0,000;    0,000
 722,87;  -31,190;    0,000;    0,000
 722,93;  -44,050;    0,000;    0,000
 723,00;   55,920;    0,000;    0,000
 723,07;   -2,690;    0,000;    0,000
 723,13;   83,220;    0,000;    0,000
 723,20;   80,880;    0,000;    0,000
 723,26;   91,340;    0,000;    0,000
 723,33;  -55,420;    0,000;    0,000
 723,39;  -14,740;    0,000;    0,000
 723,46;  -26,280;    0,000;    0,000
 723,52;   19,370;    0,000;    0,000
 723,59;  -65,040;    0,000;    0,000
 723,66;  -10,620;    0,000;    0,000
 723,72; -134,900;    0,000;    0,000
 723,79;   55,800;    0,000;    0,000
 723,85;  -92,810;    0,000;    0,000
 723,92;   63,280;    0,000;    0,000
 723,98;   24,140;    0,000;    0,000
 724,05;  273,810;    0,000;    0,000
 724,12;  280,950;    0,000;    0,000
 724,18;  230,910;    0,000;    0,000
 724,25;   25,860;    0,000;    0,000
 724,31;  -53,000;    0,000;    0,000
 724,38;  127,560;    0,000;    0,000
 724,44;   30,880;    0,000;    0,000
 724,51;  -49,830;    0,000;    0,000
 724,57;  -12,180;    0,000;    0,000
 724,64;  -26,490;    0,000;    0,000
 724,71;   51,580;    0,000;    0,000
 724,77;  -39,650;    0,000;    0,000
 724,84;  -49,830;    0,000;    0,000
 724,90;  -71,310;    0,000;    0,000
 724,97;  -29,260;    0,000;    0,000
 725,03;  -65,030;    0,000;    0,000
 725,10;  -63,770;    0,000;    0,000
 725,16;   48,060;    0,000;    0,000
 725,23;  101,310;    0,000;    0,000
 725,29;  -17,580;    0,000;    0,000
 725,36;   22,450;    0,000;    0,000
 725,43;  107,970;    0,000;    0,000
 725,49;   15,890;    0,000;    0,000
 725,56;   41,060;    0,000;    0,000
 725,62;   29,800;    0,000;    0,000
 725,69;   98,160;    0,000;    0,000
 725,75;  134,120;    0,000;    0,000
 725,82;   46,980;    0,000;    0,000
 725,88;   60,870;    0,000;    0,000
 725,95;   -7,160;    0,000;    0,000
 726,01;   48,670;    0,000;    0,000
 726,08;   -9,940;    0,000;    0,000
 726,15;  -17,660;    0,000;    0,000
 726,21;  -33,780;    0,000;    0,000
 726,28;  -24,630;    0,000;    0,000
 726,34;   68,580;    0,000;    0,000
 726,41;  -22,120;    0,000;    0,000
 726,47;  -11,130;    0,000;    0,000
 726,54;   64,730;    0,000;    0,000
 726,60;  -43,830;    0,000;    0,000
 726,67;  115,970;    0,000;    0,000
 726,73;   -5,900;    0,000;    0,000
 726,80;   28,420;    0,000;    0,000
 726,86;  -56,990;    0,000;    0,000
 726,93;   27,740;    0,000;    0,000
 726,99;   35,660;    0,000;    0,000
 727,06;   26,240;    0,000;    0,000
 727,13;  166,700;    0,000;    0,000
 727,19;  174,950;    0,000;    0,000
 727,26;  185,570;    0,000;    0,000
 727,32;  132,580;    0,000;    0,000
 727,39; -130,930;    0,000;    0,000
 727,45;   27,240;    0,000;    0,000
 727,52;  -69,900;    0,000;    0,000
 727,58;  -45,910;    0,000;    0,000
 727,65;  -62,880;    0,000;    0,000
 727,71;  100,740;    0,000;    0,000
 727,78;    0,270;    0,000;    0,000
 727,84;   -2,530;    0,000;    0,000
 727,91;  -67,270;    0,000;    0,000
 727,97;  -44,880;    0,000;    0,000
 728,04;  -12,620;    0,000;    0,000
 728,10;    0,490;    0,000;    0,000
 728,17;  -14,280;    0,000;    0,000
 728,23;  -66,760;    0,000;    0,000
 728,30;   27,770;    0,000;    0,000
 728,36;   70,170;    0,000;    0,000
 728,43;  -42,210;    0,000;    0,000
 728,49;   38,120;    0,000;    0,000
 728,56;   60,530;    0,000;    0,000
 728,63;  521,680;    0,000;    0,000
 728,69;  -43,420;    0,000;    0,000
 728,76;   65,030;    0,000;    0,000
 728,82;  -63,150;    0,000;    0,000
 728,89;   77,380;    0,000;    0,000
 728,95;  -55,750;    0,000;    0,000
 729,02;   -0,670;    0,000;    0,000
 729,08;  -65,390;    0,000;    0,000
 729,15;  -21,550;    0,000;    0,000
 729,21; -108,950;    0,000;    0,000
 729,28;   51,600;    0,000;    0,000
 729,34;  -34,600;    0,000;    0,000
 729,41;   87,360;    0,000;    0,000
 729,47;   56,200;    0,000;    0,000
 729,54;   88,650;    0,000;    0,000
 729,60;   77,710;    0,000;    0,000
 729,67;   58,670;    0,000;    0,000
 729,73;  -84,270;    0,000;    0,000
 729,80;  113,320;    0,000;    0,000
 729,86;  -53,300;    0,000;    0,000
 729,93;   -9,260;    0,000;    0,000
 729,99;  -16,690;    0,000;    0,000
 730,06;   -8,520;    0,000;    0,000
 730,12;   22,730;    0,000;    0,000
 730,19;  -70,610;    0,000;    0,000
 730,25;   47,560;    0,000;    0,000
 730,32;  145,390;    0,000;    0,000
 730,38;  -41,110;    0,000;    0,000
 730,45;   44,510;    0,000;    0,000
 730,51;  -55,340;    0,000;    0,000
 730,58;   18,790;    0,000;    0,000
 730,64;   -1,130;    0,000;    0,000
 730,71;  -88,960;    0,000;    0,000
 730,77;   68,060;    0,000;    0,000
 730,84;   31,040;    0,000;    0,000
 730,90;  -57,290;    0,000;    0,000
 730,97;  -14,740;    0,000;    0,000
 731,03;  -11,380;    0,000;    0,000
 731,10;   44,600;    0,000;    0,000
 731,16;   -5,370;    0,000;    0,000
 731,23;  -30,860;    0,000;    0,000
 731,29;  -43,520;    0,000;    0,000
 731,36;   -0,700;    0,000;    0,000
 731,42;   47,220;    0,000;    0,000
 731,49;  -45,990;    0,000;    0,000
 731,55;   -8,400;    0,000;    0,000
 731,62;  -93,390;    0,000;    0,000
 731,68;   26,830;    0,000;    0,000
 731,75;  -63,430;    0,000;    0,000
 731,81;  -14,910;    0,000;    0,000
 731,87;   26,000;    0,000;    0,000
 731,94;  -20,600;    0,000;    0,000
 732,00;  -65,090;    0,000;    0,000
 732,07;   32,870;    0,000;    0,000
 732,13;  -34,750;    0,000;    0,000
 732,20;  -78,360;    0,000;    0,000
 732,26;  -23,740;    0,000;    0,000
 732,33;   -9,400;    0,000;    0,000
 732,39;   22,210;    0,000;    0,000
 732,46;   21,750;    0,000;    0,000
 732,52;   24,480;    0,000;    0,000
 732,59; -129,220;    0,000;    0,000
 732,65;  -11,970;    0,000;    0,000
 732,72;  -15,990;    0,000;    0,000
 732,78;   51,720;    0,000;    0,000
 732,85;    9,310;    0,000;    0,000
 732,91;   32,640;    0,000;    0,000
 732,98;    0,710;    0,000;    0,000
 733,04;  -74,380;    0,000;    0,000
 733,11;  -42,410;    0,000;    0,000
 733,17;   47,320;    0,000;    0,000
 733,24;  -18,930;    0,000;    0,000
 733,30;    6,400;    0,000;    0,000
 733,36; -139,740;    0,000;    0,000
 733,43;  108,430;    0,000;    0,000
 733,49;  -57,980;    0,000;    0,000
 733,56;   70,340;    0,000;    0,000
 733,62; -177,700;    0,000;    0,000
 733,69;  -31,320;    0,000;    0,000
 733,75;  -62,740;    0,000;    0,000
 733,82;  -43,820;    0,000;    0,000
 733,88;  -60,980;    0,000;    0,000
 733,95;   70,150;    0,000;    0,000
 734,01;   21,600;    0,000;    0,000
 734,08;  -29,990;    0,000;    0,000
 734,14;  -47,600;    0,000;    0,000
 734,21;  133,490;    0,000;    0,000
 734,27; -113,770;    0,000;    0,000
 734,33;    6,060;    0,000;    0,000
 734,40; -159,020;    0,000;    0,000
 734,46;   24,060;    0,000;    0,000
 734,53;    5,040;    0,000;    0,000
 734,59; -121,600;    0,000;    0,000
 734,66;  -59,200;    0,000;    0,000
 734,72;  -59,280;    0,000;    0,000
 734,79;  -82,450;    0,000;    0,000
 734,85;    8,770;    0,000;    0,000
 734,92;  -77,110;    0,000;    0,000
 734,98;   -3,210;    0,000;    0,000
 735,04; -119,380;    0,000;    0,000
 735,11;   80,350;    0,000;    0,000
 735,17;  -97,890;    0,000;    0,000
 735,24;    2,590;    0,000;    0,000
 735,30;  -51,630;    0,000;    0,000
 735,37;   81,880;    0,000;    0,000
 735,43;  -41,830;    0,000;    0,000
 735,50;   31,080;    0,000;    0,000
 735,56; -116,080;    0,000;    0,000
 735,63;  -49,380;    0,000;    0,000
 735,69;  -12,590;    0,000;    0,000
 735,75;  -63,350;    0,000;    0,000
 735,82;  -91,660;    0,000;    0,000
 735,88;  -14,760;    0,000;    0,000
 735,95;  -46,530;    0,000;    0,000
 736,01;  127,930;    0,000;    0,000
 736,08;  -58,850;    0,000;    0,000
 736,14;    0,710;    0,000;    0,000
 736,20; -144,000;    0,000;    0,000
 736,27; -145,500;    0,000;    0,000
 736,33; -117,960;    0,000;    0,000
 736,40;    0,390;    0,000;    0,000
 736,46; -110,860;    0,000;    0,000
 736,53;   14,490;    0,000;    0,000
 736,59;  -69,050;    0,000;    0,000
 736,66;   -0,920;    0,000;    0,000
 736,72;  -48,090;    0,000;    0,000
 736,78;   -8,600;    0,000;    0,000
 736,85;  -94,950;    0,000;    0,000
 736,91;   98,340;    0,000;    0,000
 736,98;   87,730;    0,000;    0,000
 737,04;   47,020;    0,000;    0,000
 737,11;   38,520;    0,000;    0,000
 737,17;  217,620;    0,000;    0,000
 737,23;  583,390;    0,000;    0,000
 737,30;  443,560;    0,000;    0,000
 737,36;  107,930;    0,000;    0,000
 737,43;  -16,220;    0,000;    0,000
 737,49;  -83,220;    0,000;    0,000
 737,56;   78,390;    0,000;    0,000
 737,62;    3,500;    0,000;    0,000
 737,68;  -25,980;    0,000;    0,000
 737,75;   -4,420;    0,000;    0,000
 737,81;   31,160;    0,000;    0,000
 737,88;  -81,030;    0,000;    0,000
 737,94;  -40,520;    0,000;    0,000
 738,01;   15,770;    0,000;    0,000
 738,07;   -0,350;    0,000;    0,000
 738,13;   29,930;    0,000;    0,000
 738,20;  -31,820;    0,000;    0,000
 738,26;   71,640;    0,000;    0,000
 738,33;  -58,680;    0,000;    0,000
 738,39;  -73,480;    0,000;    0,000
 738,46;   50,780;    0,000;    0,000
 738,52;  -88,950;    0,000;    0,000
 738,58;  -42,840;    0,000;    0,000
 738,65; -124,880;    0,000;    0,000
 738,71;  -43,270;    0,000;    0,000
 738,78;    1,360;    0,000;    0,000
 738,84;  -90,280;    0,000;    0,000
 738,90;  -58,130;    0,000;    0,000
 738,97;   38,790;    0,000;    0,000
 739,03; -103,710;    0,000;    0,000
 739,10;   86,250;    0,000;    0,000
 739,16;  -67,420;    0,000;    0,000
 739,23;   -3,250;    0,000;    0,000
 739,29; -104,960;    0,000;    0,000
 739,35;  -57,510;    0,000;    0,000
 739,42;  -18,200;    0,000;    0,000
 739,48;  -10,470;    0,000;    0,000
 739,55; -118,760;    0,000;    0,000
 739,61;   26,040;    0,000;    0,000
 739,67;  -94,740;    0,000;    0,000
 739,74; -152,280;    0,000;    0,000
 739,80; -120,930;    0,000;    0,000
 739,87;  -10,790;    0,000;    0,000
 739,93;  -25,100;    0,000;    0,000
 739,99;   -5,450;    0,000;    0,000
 740,06; -136,090;    0,000;    0,000
 740,12; -123,030;    0,000;    0,000
 740,19; -108,190;    0,000;    0,000
 740,25;   44,710;    0,000;    0,000
 740,31;  -39,150;    0,000;    0,000
 740,38;  -32,640;    0,000;    0,000
 740,44;  -60,080;    0,000;    0,000
 740,51;   -2,290;    0,000;    0,000
 740,57;  -65,780;    0,000;    0,000
 740,63;  -34,670;    0,000;    0,000
 740,70;  -20,140;    0,000;    0,000
 740,76;  -24,380;    0,000;    0,000
 740,83;  -34,940;    0,000;    0,000
 740,89;  -36,140;    0,000;    0,000
 740,95;  -17,800;    0,000;    0,000
 741,02;  -10,410;    0,000;    0,000
 741,08;  -35,040;    0,000;    0,000
 741,15;  -49,510;    0,000;    0,000
 741,21;   39,320;    0,000;    0,000
 741,27; -104,100;    0,000;    0,000
 741,34;  -13,210;    0,000;    0,000
 741,40;  -30,290;    0,000;    0,000
 741,47;  106,370;    0,000;    0,000
 741,53;   72,500;    0,000;    0,000
 741,59;  -12,990;    0,000;    0,000
 741,66;  196,110;    0,000;    0,000
 741,72;  -86,010;    0,000;    0,000
 741,79;   26,860;    0,000;    0,000
 741,85;    2,060;    0,000;    0,000
 741,91;  -29,730;    0,000;    0,000
 741,98;  -35,770;    0,000;    0,000
 742,04;  -43,860;    0,000;    0,000
 742,10; -100,580;    0,000;    0,000
 742,17;   -6,050;    0,000;    0,000
 742,23;   -1,160;    0,000;    0,000
 742,30;   -9,730;    0,000;    0,000
 742,36;   32,030;    0,000;    0,000
 742,42;  -49,960;    0,000;    0,000
 742,49;   28,710;    0,000;    0,000
 742,55;   34,880;    0,000;    0,000
 742,61;   41,420;    0,000;    0,000
 742,68; -106,270;    0,000;    0,000
 742,74;   35,430;    0,000;    0,000
 742,81;  -15,320;    0,000;    0,000
 742,87;  -48,920;    0,000;    0,000
 742,93;   -6,180;    0,000;    0,000
 743,00;  -31,290;    0,000;    0,000
 743,06;   15,870;    0,000;    0,000
 743,13;  156,880;    0,000;    0,000
 743,19;  -44,500;    0,000;    0,000
 743,25;  -55,380;    0,000;    0,000
 743,32;  -76,070;    0,000;    0,000
 743,38;  -22,140;    0,000;    0,000
 743,44;   33,450;    0,000;    0,000
 743,51;   -3,080;    0,000;    0,000
 743,57;    0,590;    0,000;    0,000
 743,63; -111,790;    0,000;    0,000
 743,70;  -57,640;    0,000;    0,000
 743,76;  -66,190;    0,000;    0,000
 743,83;   24,370;    0,000;    0,000
 743,89;  -75,350;    0,000;    0,000
 743,95;  -11,600;    0,000;    0,000
 744,02;   46,670;    0,000;    0,000
 744,08;  -63,710;    0,000;    0,000
 744,14; -116,700;    0,000;    0,000
 744,21;   36,350;    0,000;    0,000
 744,27;   22,060;    0,000;    0,000
 744,33;  143,060;    0,000;    0,000
 744,40;  -70,400;    0,000;    0,000
 744,46;  -19,900;    0,000;    0,000
 744,53; -123,710;    0,000;    0,000
 744,59;  -73,020;    0,000;    0,000
 744,65; -117,220;    0,000;    0,000
 744,72;  -69,260;    0,000;    0,000
 744,78;    2,850;    0,000;    0,000
 744,84; -105,620;    0,000;    0,000
 744,91;  -42,780;    0,000;    0,000
 744,97;  -77,940;    0,000;    0,000
 745,03;  -26,350;    0,000;    0,000
 745,10;    6,810;    0,000;    0,000
 745,16; -129,470;    0,000;    0,000
 745,22;  -49,250;    0,000;    0,000
 745,29; -115,120;    0,000;    0,000
 745,35; -158,180;    0,000;    0,000
 745,42;  -53,590;    0,000;    0,000
 745,48; -115,270;    0,000;    0,000
 745,54;    2,370;    0,000;    0,000
 745,61;  -57,410;    0,000;    0,000
 745,67;  -27,800;    0,000;    0,000
 745,73;  -32,330;    0,000;    0,000
 745,80;   47,360;    0,000;    0,000
 745,86; -118,010;    0,000;    0,000
 745,92;  -75,480;    0,000;    0,000
 745,99;  -54,410;    0,000;    0,000
 746,05;  -45,710;    0,000;    0,000
 746,11;   -6,480;    0,000;    0,000
 746,18;   11,480;    0,000;    0,000
 746,24;    4,430;    0,000;    0,000
 746,30;   -4,450;    0,000;    0,000
 746,37;   28,120;    0,000;    0,000
 746,43;  -56,020;    0,000;    0,000
 746,49;  277,000;    0,000;    0,000
 746,56;  106,760;    0,000;    0,000
 746,62;  181,470;    0,000;    0,000
 746,68;  126,700;    0,000;    0,000
 746,75;   33,080;    0,000;    0,000
 746,81;   94,030;    0,000;    0,000
 746,87;  -38,400;    0,000;    0,000
 746,94; -126,800;    0,000;    0,000
 747,00;   -9,670;    0,000;    0,000
 747,06;   53,860;    0,000;    0,000
 747,13;  -78,470;    0,000;    0,000
 747,19; -124,620;    0,000;    0,000
 747,25;   47,280;    0,000;    0,000
 747,32;   -1,520;    0,000;    0,000
 747,38;    2,580;    0,000;    0,000
 747,44;  -35,570;    0,000;    0,000
 747,51;   57,210;    0,000;    0,000
 747,57;  -93,700;    0,000;    0,000
 747,63;  -48,090;    0,000;    0,000
 747,70; -127,080;    0,000;    0,000
 747,76;   40,430;    0,000;    0,000
 747,82;  -91,380;    0,000;    0,000
 747,89;  -88,820;    0,000;    0,000
 747,95;  -31,850;    0,000;    0,000
 748,01;  -10,660;    0,000;    0,000
 748,08;   54,330;    0,000;    0,000
 748,14;  -80,390;    0,000;    0,000
 748,20;   -6,210;    0,000;    0,000
 748,27;   80,650;    0,000;    0,000
 748,33;  -17,430;    0,000;    0,000
 748,39;   11,290;    0,000;    0,000
 748,46; -103,410;    0,000;    0,000
 748,52;  -68,960;    0,000;    0,000
 748,58;    5,540;    0,000;    0,000
 748,65;  -98,510;    0,000;    0,000
 748,71;  -45,780;    0,000;    0,000
 748,77;   33,730;    0,000;    0,000
 748,83;  -24,720;    0,000;    0,000
 748,90;  -70,900;    0,000;    0,000
 748,96; -112,390;    0,000;    0,000
 749,02;   29,570;    0,000;    0,000
 749,09;  -44,060;    0,000;    0,000
 749,15;   26,060;    0,000;    0,000
 749,21;   29,380;    0,000;    0,000
 749,28;  413,210;    0,000;    0,000
 749,34; 1230,890;    0,000;    0,000
 749,40; 2405,670;    0,000;    0,000
 749,47; 1131,480;    0,000;    0,000
 749,53;  138,770;    0,000;    0,000
 749,59;  -11,400;    0,000;    0,000
 749,66;   40,750;    0,000;    0,000
 749,72;  -82,070;    0,000;    0,000
 749,78;   86,650;    0,000;    0,000
 749,84;  -95,790;    0,000;    0,000
 749,91;  -68,120;    0,000;    0,000
 749,97;  -52,780;    0,000;    0,000
 750,03;   -8,390;    0,000;    0,000
 750,10;  -58,110;    0,000;    0,000
 750,16;  -34,660;    0,000;    0,000
 750,22; -121,580;    0,000;    0,000
 750,29;   85,670;    0,000;    0,000
 750,35;  109,590;    0,000;    0,000
 750,41;  282,160;    0,000;    0,000
 750,47;  691,970;    0,000;    0,000
 750,54;  537,340;    0,000;    0,000
 750,60;  252,760;    0,000;    0,000
 750,66;  -32,300;    0,000;    0,000
 750,73;   17,440;    0,000;    0,000
 750,79;  -18,360;    0,000;    0,000
 750,85;  -52,160;    0,000;    0,000
 750,92;   49,970;    0,000;    0,000
 750,98;  -95,740;    0,000;    0,000
 751,04;   30,140;    0,000;    0,000
 751,10;  -32,230;    0,000;    0,000
 751,17;   -3,020;    0,000;    0,000
 751,23;  -81,690;    0,000;    0,000
 751,29;   44,920;    0,000;    0,000
 751,36;  -77,640;    0,000;    0,000
 751,42; -104,630;    0,000;    0,000
 751,48;  -43,620;    0,000;    0,000
 751,54;   83,170;    0,000;    0,000
 751,61; -115,800;    0,000;    0,000
 751,67;  -52,130;    0,000;    0,000
 751,73;  -97,780;    0,000;    0,000
 751,80;  -38,630;    0,000;    0,000
 751,86;   32,270;    0,000;    0,000
 751,92;   -1,240;    0,000;    0,000
 751,98;   -5,850;    0,000;    0,000
 752,05;  -52,580;    0,000;    0,000
 752,11;  -18,530;    0,000;    0,000
 752,17;   29,850;    0,000;    0,000
 752,24;  -21,930;    0,000;    0,000
 752,30;   93,780;    0,000;    0,000
 752,36;  -16,310;    0,000;    0,000
 752,42;  -30,570;    0,000;    0,000
 752,49; -100,170;    0,000;    0,000
 752,55;  -40,450;    0,000;    0,000
 752,61;  -25,580;    0,000;    0,000
 752,68;   17,720;    0,000;    0,000
 752,74;  -24,830;    0,000;    0,000
 752,80;  -50,150;    0,000;    0,000
 752,86; -109,130;    0,000;    0,000
 752,93;  -65,600;    0,000;    0,000
 752,99;  -99,400;    0,000;    0,000
 753,05;  -95,980;    0,000;    0,000
 753,11;  -18,120;    0,000;    0,000
 753,18;   30,940;    0,000;    0,000
 753,24;  -25,610;    0,000;    0,000
 753,30;   13,250;    0,000;    0,000
 753,37;  -54,870;    0,000;    0,000
 753,43;  -57,120;    0,000;    0,000
 753,49;  -15,140;    0,000;    0,000
 753,55;   66,450;    0,000;    0,000
 753,62;  102,140;    0,000;    0,000
 753,68;  -56,440;    0,000;    0,000
 753,74;  -85,710;    0,000;    0,000
 753,80;  -32,350;    0,000;    0,000
 753,87;  -75,480;    0,000;    0,000
 753,93;  -27,650;    0,000;    0,000
 753,99;  -78,940;    0,000;    0,000
 754,05;  -72,220;    0,000;    0,000
 754,12;   42,110;    0,000;    0,000
 754,18;  -59,640;    0,000;    0,000
 754,24;  -89,440;    0,000;    0,000
 754,30;  -91,480;    0,000;    0,000
 754,37;  -11,480;    0,000;    0,000
 754,43;   15,080;    0,000;    0,000
 754,49;  -48,910;    0,000;    0,000
 754,55;  -92,370;    0,000;    0,000
 754,62;    2,640;    0,000;    0,000
 754,68;   -9,320;    0,000;    0,000
 754,74;  -98,900;    0,000;    0,000
 754,81;  -48,740;    0,000;    0,000
 754,87; -127,480;    0,000;    0,000
 754,93; -134,650;    0,000;    0,000
 754,99;    6,110;    0,000;    0,000
 755,06;   -4,190;    0,000;    0,000
 755,12;  -29,430;    0,000;    0,000
 755,18;  -82,460;    0,000;    0,000
 755,24;  -73,770;    0,000;    0,000
 755,31;  -24,110;    0,000;    0,000
 755,37;  -54,600;    0,000;    0,000
 755,43;   24,030;    0,000;    0,000
 755,49;  -93,370;    0,000;    0,000
 755,56;  -59,650;    0,000;    0,000
 755,62; -141,110;    0,000;    0,000
 755,68;    2,960;    0,000;    0,000
 755,74;   35,730;    0,000;    0,000
 755,80;  -92,350;    0,000;    0,000
 755,87;   89,060;    0,000;    0,000
 755,93;  -81,660;    0,000;    0,000
 755,99;  -12,310;    0,000;    0,000
 756,05;   28,460;    0,000;    0,000
 756,12;  -77,220;    0,000;    0,000
 756,18;  -27,370;    0,000;    0,000
 756,24;  -90,630;    0,000;    0,000
 756,30;  -46,280;    0,000;    0,000
 756,37;  -65,420;    0,000;    0,000
 756,43; -127,420;    0,000;    0,000
 756,49;   47,910;    0,000;    0,000
 756,55;   84,480;    0,000;    0,000
 756,62;  -80,470;    0,000;    0,000
 756,68;   -5,110;    0,000;    0,000
 756,74;    0,510;    0,000;    0,000
 756,80;  -80,990;    0,000;    0,000
 756,87; -104,890;    0,000;    0,000
 756,93;  -66,520;    0,000;    0,000
 756,99;  -43,130;    0,000;    0,000
 757,05;  -17,520;    0,000;    0,000
 757,11;  -45,010;    0,000;    0,000
 757,18;  -29,210;    0,000;    0,000
 757,24;  -61,430;    0,000;    0,000
 757,30;    6,820;    0,000;    0,000
 757,36;  -56,130;    0,000;    0,000
 757,43;   -8,990;    0,000;    0,000
 757,49;  -27,790;    0,000;    0,000
 757,55;  149,210;    0,000;    0,000
 757,61;   96,000;    0,000;    0,000
 757,68;  117,750;    0,000;    0,000
 757,74;  268,900;    0,000;    0,000
 757,80;  880,560;    0,000;    0,000
 757,86; 2056,680;    0,000;    0,000
 757,92; 1280,710;    0,000;    0,000
 757,99;  155,180;    0,000;    0,000
 758,05;   80,190;    0,000;    0,000
 758,11;  -19,300;    0,000;    0,000
 758,17;  -46,670;    0,000;    0,000
 758,23;  -14,850;    0,000;    0,000
 758,30;  -42,460;    0,000;    0,000
 758,36;  -30,490;    0,000;    0,000
 758,42;  -69,360;    0,000;    0,000
 758,48;   -7,500;    0,000;    0,000
 758,55;   19,870;    0,000;    0,000
 758,61;  -87,960;    0,000;    0,000
 758,67;  -18,940;    0,000;    0,000
 758,73;  -74,450;    0,000;    0,000
 758,79;  -59,390;    0,000;    0,000
 758,86;  471,200;    0,000;    0,000
 758,92;   64,430;    0,000;    0,000
 758,98;    4,080;    0,000;    0,000
 759,04;  206,010;    0,000;    0,000
 759,10;  349,360;    0,000;    0,000
 759,17;  800,670;    0,000;    0,000
 759,23; 1800,800;    0,000;    0,000
 759,29; 4491,320;    0,000;    0,000
 759,35; 3142,190;    0,000;    0,000
 759,42;  413,300;    0,000;    0,000
 759,48;   88,200;    0,000;    0,000
 759,54;  108,280;    0,000;    0,000
 759,60;   90,150;    0,000;    0,000
 759,66;  -52,070;    0,000;    0,000
 759,73;  -47,130;    0,000;    0,000
 759,79;   72,680;    0,000;    0,000
 759,85;  -17,590;    0,000;    0,000
 759,91;   98,650;    0,000;    0,000
 759,97; -148,350;    0,000;    0,000
 760,04;   13,370;    0,000;    0,000
 760,10;    7,530;    0,000;    0,000
 760,16;  -60,400;    0,000;    0,000
 760,22;  -32,350;    0,000;    0,000
 760,28; -107,450;    0,000;    0,000
 760,35;  -40,920;    0,000;    0,000
 760,41; -105,980;    0,000;    0,000
 760,47;   56,160;    0,000;    0,000
 760,53;  -91,840;    0,000;    0,000
 760,59; -124,520;    0,000;    0,000
 760,65;    3,990;    0,000;    0,000
 760,72; -180,190;    0,000;    0,000
 760,78;  -43,070;    0,000;    0,000
 760,84;  -92,210;    0,000;    0,000
 760,90;  -29,340;    0,000;    0,000
 760,96;  -38,140;    0,000;    0,000
 761,03;    2,260;    0,000;    0,000
 761,09;  -52,760;    0,000;    0,000
 761,15; -105,700;    0,000;    0,000
 761,21;  -80,090;    0,000;    0,000
 761,27;  -28,950;    0,000;    0,000
 761,34;   40,520;    0,000;    0,000
 761,40;  -76,710;    0,000;    0,000
 761,46;  -96,790;    0,000;    0,000
 761,52;  -31,160;    0,000;    0,000
 761,58;  -49,750;    0,000;    0,000
 761,64;  -20,630;    0,000;    0,000
 761,71;   38,230;    0,000;    0,000
 761,77;  -29,320;    0,000;    0,000
 761,83;  -67,420;    0,000;    0,000
 761,89;    2,470;    0,000;    0,000
 761,95;    9,310;    0,000;    0,000
 762,02;  -78,380;    0,000;    0,000
 762,08; -106,140;    0,000;    0,000
 762,14;  -46,040;    0,000;    0,000
 762,20;  -66,590;    0,000;    0,000
 762,26;  -74,920;    0,000;    0,000
 762,32;  -48,520;    0,000;    0,000
 762,39;  -17,780;    0,000;    0,000
 762,45;   56,970;    0,000;    0,000
 762,51;   73,190;    0,000;    0,000
 762,57;  483,280;    0,000;    0,000
 762,63; 1185,820;    0,000;    0,000
 762,69; 2601,710;    0,000;    0,000
 762,76; 1713,890;    0,000;    0,000
 762,82;  323,930;    0,000;    0,000
 762,88;    0,070;    0,000;    0,000
 762,94;   -2,710;    0,000;    0,000
 763,00;   86,990;    0,000;    0,000
 763,06;  -34,040;    0,000;    0,000
 763,13;   -4,400;    0,000;    0,000
 763,19;  -33,500;    0,000;    0,000
 763,25;  -17,510;    0,000;    0,000
 763,31;   41,520;    0,000;    0,000
 763,37;   70,390;    0,000;    0,000
 763,43;  230,800;    0,000;    0,000
 763,50;  153,480;    0,000;    0,000
 763,56;   35,420;    0,000;    0,000
 763,62;   45,590;    0,000;    0,000
 763,68;   21,850;    0,000;    0,000
 763,74;  -65,720;    0,000;    0,000
 763,80;  -33,280;    0,000;    0,000
 763,87;  -32,560;    0,000;    0,000
 763,93;    8,110;    0,000;    0,000
 763,99;   95,380;    0,000;    0,000
 764,05;   34,130;    0,000;    0,000
 764,11;   -2,560;    0,000;    0,000
 764,17;   -7,580;    0,000;    0,000
 764,24;  -43,030;    0,000;    0,000
 764,30;  -45,310;    0,000;    0,000
 764,36;  -51,990;    0,000;    0,000
 764,42;  -62,100;    0,000;    0,000
 764,48;  -68,560;    0,000;    0,000
 764,54;   20,720;    0,000;    0,000
 764,60;  -73,120;    0,000;    0,000
 764,67;  -36,350;    0,000;    0,000
 764,73;  -28,060;    0,000;    0,000
 764,79;  -51,280;    0,000;    0,000
 764,85;  -42,410;    0,000;    0,000
 764,91;  -95,240;    0,000;    0,000
 764,97; -106,180;    0,000;    0,000
 765,03;  106,980;    0,000;    0,000
 765,10;  -25,230;    0,000;    0,000
 765,16; -185,340;    0,000;    0,000
 765,22;   14,520;    0,000;    0,000
 765,28; -122,760;    0,000;    0,000
 765,34;    8,990;    0,000;    0,000
 765,40;  -66,560;    0,000;    0,000
 765,46;    4,000;    0,000;    0,000
 765,53;  -22,550;    0,000;    0,000
 765,59;   13,210;    0,000;    0,000
 765,65;   -0,860;    0,000;    0,000
 765,71;  122,740;    0,000;    0,000
 765,77;  -52,220;    0,000;    0,000
 765,83;  -34,980;    0,000;    0,000
 765,89;   14,020;    0,000;    0,000
 765,96;   31,210;    0,000;    0,000
 766,02;   19,040;    0,000;    0,000
 766,08;  -83,310;    0,000;    0,000
 766,14; -152,150;    0,000;    0,000
 766,20;  -60,750;    0,000;    0,000
 766,26;  -86,130;    0,000;    0,000
 766,32;   -3,590;    0,000;    0,000
 766,39;  -25,760;    0,000;    0,000
 766,45;  -81,700;    0,000;    0,000
 766,51;  -25,630;    0,000;    0,000
 766,57;  -30,930;    0,000;    0,000
 766,63; -151,720;    0,000;    0,000
 766,69;   13,180;    0,000;    0,000
 766,75;  -65,030;    0,000;    0,000
 766,81;  -83,990;    0,000;    0,000
 766,88; -112,390;    0,000;    0,000
 766,94;  -89,200;    0,000;    0,000
 767,00; -104,530;    0,000;    0,000
 767,06;  -77,100;    0,000;    0,000
 767,12;  -19,520;    0,000;    0,000
 767,18;  -54,650;    0,000;    0,000
 767,24; -108,630;    0,000;    0,000
 767,30;  -67,840;    0,000;    0,000
 767,37;  -55,950;    0,000;    0,000
 767,43;   24,160;    0,000;    0,000
 767,49; -127,450;    0,000;    0,000
 767,55;  -65,420;    0,000;    0,000
 767,61;   16,630;    0,000;    0,000
 767,67;  239,330;    0,000;    0,000
 767,73;  499,820;    0,000;    0,000
 767,79;  798,840;    0,000;    0,000
 767,85;  369,230;    0,000;    0,000
 767,92;    6,800;    0,000;    0,000
 767,98; -161,930;    0,000;    0,000
 768,04;  -74,940;    0,000;    0,000
 768,10;  -57,530;    0,000;    0,000
 768,16;  -44,200;    0,000;    0,000
 768,22;  -87,000;    0,000;    0,000
 768,28;   -8,880;    0,000;    0,000
 768,34;  -92,250;    0,000;    0,000
 768,40;  -71,560;    0,000;    0,000
 768,47;  -88,950;    0,000;    0,000
 768,53;  -11,790;    0,000;    0,000
 768,59;   -1,540;    0,000;    0,000
 768,65;   97,870;    0,000;    0,000
 768,71;  160,610;    0,000;    0,000
 768,77;  187,420;    0,000;    0,000
 768,83;  -50,500;    0,000;    0,000
 768,89;   17,120;    0,000;    0,000
 768,95;  -79,480;    0,000;    0,000
 769,02;  -30,490;    0,000;    0,000
 769,08; -170,830;    0,000;    0,000
 769,14;   46,040;    0,000;    0,000
 769,20;    6,470;    0,000;    0,000
 769,26; -125,770;    0,000;    0,000
 769,32;  -88,960;    0,000;    0,000
 769,38;   92,660;    0,000;    0,000
 769,44;  -74,880;    0,000;    0,000
 769,50;  -38,520;    0,000;    0,000
 769,56;  -21,810;    0,000;    0,000
 769,63;   17,200;    0,000;    0,000
 769,69;  -47,620;    0,000;    0,000
 769,75;  -80,650;    0,000;    0,000
 769,81;   27,700;    0,000;    0,000
 769,87;  -39,370;    0,000;    0,000
 769,93;  -74,470;    0,000;    0,000
 769,99;  -19,090;    0,000;    0,000
 770,05;  -17,210;    0,000;    0,000
 770,11;  -76,550;    0,000;    0,000
 770,17; -205,600;    0,000;    0,000
 770,23;  -41,000;    0,000;    0,000
 770,30; -155,770;    0,000;    0,000
 770,36;  -58,520;    0,000;    0,000
 770,42; -132,340;    0,000;    0,000
 770,48;   10,650;    0,000;    0,000
 770,54;    3,310;    0,000;    0,000
 770,60; -111,330;    0,000;    0,000
 770,66;   15,050;    0,000;    0,000
 770,72; -106,760;    0,000;    0,000
 770,78;  -36,720;    0,000;    0,000
 770,84;   41,050;    0,000;    0,000
 770,90;    6,640;    0,000;    0,000
 770,96;  -55,750;    0,000;    0,000
 771,03; -152,090;    0,000;    0,000
 771,09;   28,410;    0,000;    0,000
 771,15;  -72,250;    0,000;    0,000
 771,21;  -57,540;    0,000;    0,000
 771,27; -131,070;    0,000;    0,000
 771,33;   -6,360;    0,000;    0,000
 771,39;  -14,650;    0,000;    0,000
 771,45;  -72,610;    0,000;    0,000
 771,51;  -72,980;    0,000;    0,000
 771,57;   63,840;    0,000;    0,000
 771,63;  116,350;    0,000;    0,000
 771,69;  434,450;    0,000;    0,000
 771,75;  452,990;    0,000;    0,000
 771,82;   40,690;    0,000;    0,000
 771,88;  -57,560;    0,000;    0,000
 771,94;  -33,520;    0,000;    0,000
 772,00; -100,870;    0,000;    0,000
 772,06; -134,460;    0,000;    0,000
 772,12;  -19,280;    0,000;    0,000
 772,18;  -51,730;    0,000;    0,000
 772,24;  -57,410;    0,000;    0,000
 772,30;  -99,760;    0,000;    0,000
 772,36;  -27,170;    0,000;    0,000
 772,42;   -6,880;    0,000;    0,000
 772,48;    0,350;    0,000;    0,000
 772,54;  -41,280;    0,000;    0,000
 772,60;  -35,970;    0,000;    0,000
 772,66;  -51,880;    0,000;    0,000
 772,73;    9,000;    0,000;    0,000
 772,79;   11,990;    0,000;    0,000
 772,85;  -21,490;    0,000;    0,000
 772,91;  -44,640;    0,000;    0,000
 772,97;  -65,730;    0,000;    0,000
 773,03;  -28,560;    0,000;    0,000
 773,09;  161,540;    0,000;    0,000
 773,15; -105,170;    0,000;    0,000
 773,21;  -82,000;    0,000;    0,000
 773,27;  -69,620;    0,000;    0,000
 773,33;  -57,550;    0,000;    0,000
 773,39;  -44,890;    0,000;    0,000
 773,45;  -94,770;    0,000;    0,000
 773,51;   72,430;    0,000;    0,000
 773,57;  -32,540;    0,000;    0,000
 773,63;  -39,090;    0,000;    0,000
 773,69;  -98,850;    0,000;    0,000
 773,75;   -0,800;    0,000;    0,000
 773,82; -122,660;    0,000;    0,000
 773,88;  -22,900;    0,000;    0,000
 773,94;  -50,400;    0,000;    0,000
 774,00;   66,440;    0,000;    0,000
 774,06;  -26,750;    0,000;    0,000
 774,12;   50,570;    0,000;    0,000
 774,18;  -18,880;    0,000;    0,000
 774,24;  -55,650;    0,000;    0,000
 774,30;  -67,490;    0,000;    0,000
 774,36;  -63,440;    0,000;    0,000
 774,42; -103,630;    0,000;    0,000
 774,48;  -48,510;    0,000;    0,000
 774,54; -109,150;    0,000;    0,000
 774,60;  -20,070;    0,000;    0,000
 774,66;   52,590;    0,000;    0,000
 774,72;   53,220;    0,000;    0,000
 774,78; -114,320;    0,000;    0,000
 774,84;  -67,310;    0,000;    0,000
 774,90;   -9,300;    0,000;    0,000
 774,96;   11,550;    0,000;    0,000
 775,02;  -71,490;    0,000;    0,000
 775,08;   52,510;    0,000;    0,000
 775,14;  -64,000;    0,000;    0,000
 775,20;  -86,200;    0,000;    0,000
 775,27;  -16,310;    0,000;    0,000
 775,33;  -33,010;    0,000;    0,000
 775,39;   17,680;    0,000;    0,000
 775,45;   56,000;    0,000;    0,000
 775,51;   86,450;    0,000;    0,000
 775,57;   47,070;    0,000;    0,000
 775,63;   -7,050;    0,000;    0,000
 775,69;   49,650;    0,000;    0,000
 775,75;    8,250;    0,000;    0,000
 775,81;  164,850;    0,000;    0,000
 775,87;   64,540;    0,000;    0,000
 775,93;  120,750;    0,000;    0,000
 775,99;   44,090;    0,000;    0,000
 776,05;  134,840;    0,000;    0,000
 776,11;   73,720;    0,000;    0,000
 776,17;  412,510;    0,000;    0,000
 776,23;  409,490;    0,000;    0,000
 776,29;  891,140;    0,000;    0,000
 776,35; 2033,210;    0,000;    0,000
 776,41; 5077,660;    0,000;    0,000
 776,47;11247,720;    0,000;    0,000
 776,53;30137,721;    0,000;    0,000
 776,59;45906,512;    0,000;    0,000
 776,65;21601,320;    0,000;    0,000
 776,71;12861,290;    0,000;    0,000
 776,77;29178,080;    0,000;    0,000
 776,83;33723,828;    0,000;    0,000
 776,89;22340,939;    0,000;    0,000
 776,95;18750,400;    0,000;    0,000
 777,01; 5620,390;    0,000;    0,000
 777,07; 1152,970;    0,000;    0,000
 777,13;  627,210;    0,000;    0,000
 777,19;  443,940;    0,000;    0,000
 777,25;  348,450;    0,000;    0,000
 777,31;  299,630;    0,000;    0,000
 777,37;  233,990;    0,000;    0,000
 777,43;  201,320;    0,000;    0,000
 777,49;   83,030;    0,000;    0,000
 777,55;  133,700;    0,000;    0,000
 777,61;  182,290;    0,000;    0,000
 777,67;   24,330;    0,000;    0,000
 777,73;  109,960;    0,000;    0,000
 777,79;  167,490;    0,000;    0,000
 777,85;  118,520;    0,000;    0,000
 777,91;  164,320;    0,000;    0,000
 777,97;   38,330;    0,000;    0,000
 778,03;  -11,880;    0,000;    0,000
 778,09;   36,300;    0,000;    0,000
 778,15;    1,920;    0,000;    0,000
 778,21;   82,240;    0,000;    0,000
 778,27;   -9,570;    0,000;    0,000
 778,33;   92,690;    0,000;    0,000
 778,39;  100,800;    0,000;    0,000
 778,45;  -14,200;    0,000;    0,000
 778,51;  -67,720;    0,000;    0,000
 778,57;  -45,310;    0,000;    0,000
 778,63;  -46,070;    0,000;    0,000
 778,69;  -35,940;    0,000;    0,000
 778,75;  -25,960;    0,000;    0,000
 778,81;  -32,250;    0,000;    0,000
 778,87;   -6,700;    0,000;    0,000
 778,93;  -60,780;    0,000;    0,000
 778,99;  -22,770;    0,000;    0,000
 779,05;  -27,510;    0,000;    0,000
 779,11;  -58,010;    0,000;    0,000
 779,17; -110,100;    0,000;    0,000
 779,23;  -73,010;    0,000;    0,000
 779,29;   20,330;    0,000;    0,000
 779,35;  -57,670;    0,000;    0,000
 779,41;  -99,970;    0,000;    0,000
 779,47;  -54,000;    0,000;    0,000
 779,53;  -81,850;    0,000;    0,000
 779,59;   15,720;    0,000;    0,000
 779,65;  -44,860;    0,000;    0,000
 779,71;   -4,310;    0,000;    0,000
 779,77;  -29,080;    0,000;    0,000
 779,83; -114,740;    0,000;    0,000
 779,89;   -9,780;    0,000;    0,000
 779,95;  413,620;    0,000;    0,000
 780,01;   58,410;    0,000;    0,000
 780,07;  -62,640;    0,000;    0,000
 780,13;  -66,770;    0,000;    0,000
 780,19;   -8,710;    0,000;    0,000
 780,25;  -68,810;    0,000;    0,000
 780,31;  -58,510;    0,000;    0,000
 780,37;  -43,220;    0,000;    0,000
 780,43;  -13,280;    0,000;    0,000
 780,49;   -8,620;    0,000;    0,000
 780,55;   -6,610;    0,000;    0,000
 780,61;   11,790;    0,000;    0,000
 780,67;  -85,940;    0,000;    0,000
 780,73;  -25,070;    0,000;    0,000
 780,79; -137,980;    0,000;    0,000
 780,85; -108,630;    0,000;    0,000
 780,91; -133,540;    0,000;    0,000
 780,97;   59,550;    0,000;    0,000
 781,03;  -89,490;    0,000;    0,000
 781,09;  -32,870;    0,000;    0,000
 781,15; -139,730;    0,000;    0,000
 781,20; -113,540;    0,000;    0,000
 781,26;   -3,010;    0,000;    0,000
 781,32;  -72,720;    0,000;    0,000
 781,38; -126,910;    0,000;    0,000
 781,44;    5,560;    0,000;    0,000
 781,50;  -21,130;    0,000;    0,000
 781,56;  -73,980;    0,000;    0,000
 781,62;  -72,190;    0,000;    0,000
 781,68;   -9,400;    0,000;    0,000
 781,74;  -35,080;    0,000;    0,000
 781,80;    7,180;    0,000;    0,000
 781,86;  -96,300;    0,000;    0,000
 781,92;  -14,860;    0,000;    0,000
 781,98;  -99,710;    0,000;    0,000
 782,04; -107,010;    0,000;    0,000
 782,10; -192,260;    0,000;    0,000
 782,16;    2,840;    0,000;    0,000
 782,22;  -47,220;    0,000;    0,000
 782,28;  -85,500;    0,000;    0,000
 782,34;  -99,450;    0,000;    0,000
 782,40;  -46,380;    0,000;    0,000
 782,46; -136,670;    0,000;    0,000
 782,52;  -77,660;    0,000;    0,000
 782,58; -204,210;    0,000;    0,000
 782,63;  -25,000;    0,000;    0,000
 782,69; -174,080;    0,000;    0,000
 782,75;    9,240;    0,000;    0,000
 782,81; -128,500;    0,000;    0,000
 782,87;  -67,880;    0,000;    0,000
 782,93;  -69,340;    0,000;    0,000
 782,99;    9,080;    0,000;    0,000
 783,05; -153,170;    0,000;    0,000
 783,11; -148,820;    0,000;    0,000
 783,17;  -31,850;    0,000;    0,000
 783,23; -126,210;    0,000;    0,000
 783,29;  -90,300;    0,000;    0,000
 783,35;   -9,280;    0,000;    0,000
 783,41; -108,390;    0,000;    0,000
 783,47;   -3,100;    0,000;    0,000
 783,53; -106,720;    0,000;    0,000
 783,59;  -68,170;    0,000;    0,000
 783,65;  -83,000;    0,000;    0,000
 783,70; -143,870;    0,000;    0,000
 783,76; -141,940;    0,000;    0,000
 783,82;  -71,620;    0,000;    0,000
 783,88;  -51,080;    0,000;    0,000
 783,94;  -42,620;    0,000;    0,000
 784,00; -154,090;    0,000;    0,000
 784,06;  -75,920;    0,000;    0,000
 784,12;  -50,670;    0,000;    0,000
 784,18;  -17,070;    0,000;    0,000
 784,24; -108,970;    0,000;    0,000
 784,30;   51,950;    0,000;    0,000
 784,36;  -79,620;    0,000;    0,000
 784,42;    8,450;    0,000;    0,000
 784,48;   34,440;    0,000;    0,000
 784,54;  -65,710;    0,000;    0,000
 784,59; -156,430;    0,000;    0,000
 784,65;  -63,640;    0,000;    0,000
 784,71; -134,010;    0,000;    0,000
 784,77;  -43,890;    0,000;    0,000
 784,83;  -41,130;    0,000;    0,000
 784,89;   68,010;    0,000;    0,000
 784,95;  337,470;    0,000;    0,000
 785,01;  404,700;    0,000;    0,000
 785,07;   70,580;    0,000;    0,000
 785,13;  -49,410;    0,000;    0,000
 785,19; -149,500;    0,000;    0,000
 785,25;  -30,110;    0,000;    0,000
 785,31;  -19,260;    0,000;    0,000
 785,36;  -59,610;    0,000;    0,000
 785,42;   42,000;    0,000;    0,000
 785,48; -102,730;    0,000;    0,000
 785,54;  -30,180;    0,000;    0,000
 785,60;  -42,950;    0,000;    0,000
 785,66;   57,300;    0,000;    0,000
 785,72;   19,130;    0,000;    0,000
 785,78;  -72,580;    0,000;    0,000
 785,84; -131,660;    0,000;    0,000
 785,90; -125,170;    0,000;    0,000
 785,96;  -47,950;    0,000;    0,000
 786,02;    3,710;    0,000;    0,000
 786,07;  -75,770;    0,000;    0,000
 786,13; -124,280;    0,000;    0,000
 786,19;   -7,290;    0,000;    0,000
 786,25;  -19,330;    0,000;    0,000
 786,31;  -84,520;    0,000;    0,000
 786,37;  -94,020;    0,000;    0,000
 786,43;  -74,610;    0,000;    0,000
 786,49; -139,650;    0,000;    0,000
 786,55;  -38,080;    0,000;    0,000
 786,61; -140,680;    0,000;    0,000
 786,66;  -43,760;    0,000;    0,000
 786,72; -113,760;    0,000;    0,000
 786,78; -193,140;    0,000;    0,000
 786,84;  -67,580;    0,000;    0,000
 786,90;  -88,560;    0,000;    0,000
 786,96;   79,720;    0,000;    0,000
 787,02;  -78,900;    0,000;    0,000
 787,08; -101,300;    0,000;    0,000
 787,14;  -75,670;    0,000;    0,000
 787,20;  -90,470;    0,000;    0,000
 787,25;  -52,400;    0,000;    0,000
 787,31; -139,000;    0,000;    0,000
 787,37;  -46,510;    0,000;    0,000
 787,43;  -86,580;    0,000;    0,000
 787,49;    0,910;    0,000;    0,000
 787,55; -116,570;    0,000;    0,000
 787,61;    9,590;    0,000;    0,000
 787,67; -132,420;    0,000;    0,000
 787,73;  -13,450;    0,000;    0,000
 787,79;  -68,020;    0,000;    0,000
 787,84;  -49,970;    0,000;    0,000
 787,90; -140,060;    0,000;    0,000
 787,96; -154,880;    0,000;    0,000
 788,02; -126,790;    0,000;    0,000
 788,08;   21,710;    0,000;    0,000
 788,14;   -1,610;    0,000;    0,000
 788,20;    5,650;    0,000;    0,000
 788,26;  197,510;    0,000;    0,000
 788,32;  289,990;    0,000;    0,000
 788,37;   -6,850;    0,000;    0,000
 788,43;  -94,380;    0,000;    0,000
 788,49;    2,120;    0,000;    0,000
 788,55; -101,250;    0,000;    0,000
 788,61; -133,900;    0,000;    0,000
 788,67;  -44,590;    0,000;    0,000
 788,73; -137,990;    0,000;    0,000
 788,79;  -95,800;    0,000;    0,000
 788,84;  -87,950;    0,000;    0,000
 788,90;  -14,060;    0,000;    0,000
 788,96;    9,100;    0,000;    0,000
 789,02;    2,950;    0,000;    0,000
 789,08;  -43,640;    0,000;    0,000
 789,14;  -54,740;    0,000;    0,000
 789,20; -148,760;    0,000;    0,000
 789,26;    7,530;    0,000;    0,000
 789,31;  -90,750;    0,000;    0,000
 789,37; -102,980;    0,000;    0,000
 789,43;  -83,120;    0,000;    0,000
 789,49;  -51,990;    0,000;    0,000
 789,55;  -99,490;    0,000;    0,000
 789,61;  -60,110;    0,000;    0,000
 789,67; -189,750;    0,000;    0,000
 789,73;  -80,120;    0,000;    0,000
 789,78; -103,740;    0,000;    0,000
 789,84;  -81,570;    0,000;    0,000
 789,90; -132,410;    0,000;    0,000
 789,96;  -52,840;    0,000;    0,000
 790,02;  -66,790;    0,000;    0,000
 790,08;  -77,170;    0,000;    0,000
 790,14;  -67,950;    0,000;    0,000
 790,19;   31,940;    0,000;    0,000
 790,25; -163,650;    0,000;    0,000
 790,31;  -80,570;    0,000;    0,000
 790,37; -105,770;    0,000;    0,000
 790,43; -132,350;    0,000;    0,000
 790,49;  -29,700;    0,000;    0,000
 790,55;  -87,400;    0,000;    0,000
 790,60; -111,660;    0,000;    0,000
 790,66;  -47,430;    0,000;    0,000
 790,72; -111,700;    0,000;    0,000
 790,78;   -8,310;    0,000;    0,000
 790,84;  -84,180;    0,000;    0,000
 790,90;  -42,720;    0,000;    0,000
 790,96;  -61,090;    0,000;    0,000
 791,01; -142,220;    0,000;    0,000
 791,07;  -67,700;    0,000;    0,000
 791,13;  -14,390;    0,000;    0,000
 791,19; -105,420;    0,000;    0,000
 791,25;  -80,170;    0,000;    0,000
 791,31; -121,370;    0,000;    0,000
 791,37;  -48,150;    0,000;    0,000
 791,42;  -73,480;    0,000;    0,000
 791,48;  -10,080;    0,000;    0,000
 791,54;  -97,670;    0,000;    0,000
 791,60;  -74,370;    0,000;    0,000
 791,66;  -44,120;    0,000;    0,000
 791,72; -111,550;    0,000;    0,000
 791,77; -103,440;    0,000;    0,000
 791,83;  -90,500;    0,000;    0,000
 791,89; -103,920;    0,000;    0,000
 791,95; -176,580;    0,000;    0,000
 792,01;   47,210;    0,000;    0,000
 792,07;  -37,220;    0,000;    0,000
 792,13; -142,660;    0,000;    0,000
 792,18;  -53,870;    0,000;    0,000
 792,24; -103,990;    0,000;    0,000
 792,30;  -68,410;    0,000;    0,000
 792,36; -112,050;    0,000;    0,000
 792,42;  -24,990;    0,000;    0,000
 792,48; -122,590;    0,000;    0,000
 792,53; -108,200;    0,000;    0,000
 792,59; -117,910;    0,000;    0,000
 792,65;  -59,900;    0,000;    0,000
 792,71; -157,900;    0,000;    0,000
 792,77;   52,360;    0,000;    0,000
 792,83;  -41,150;    0,000;    0,000
 792,88;  -92,360;    0,000;    0,000
 792,94; -165,570;    0,000;    0,000
 793,00; -111,450;    0,000;    0,000
 793,06; -118,420;    0,000;    0,000
 793,12; -121,910;    0,000;    0,000
 793,18; -133,720;    0,000;    0,000
 793,23; -115,690;    0,000;    0,000
 793,29;  -23,440;    0,000;    0,000
 793,35;  -82,490;    0,000;    0,000
 793,41; -156,810;    0,000;    0,000
 793,47;    4,770;    0,000;    0,000
 793,52;  -47,380;    0,000;    0,000
 793,58; -141,520;    0,000;    0,000
 793,64;  -34,070;    0,000;    0,000
 793,70;  -97,830;    0,000;    0,000
 793,76;  -68,130;    0,000;    0,000
 793,82;  -14,680;    0,000;    0,000
 793,87; -108,090;    0,000;    0,000
 793,93;  -99,720;    0,000;    0,000
 793,99; -145,230;    0,000;    0,000
 794,05;  -50,920;    0,000;    0,000
 794,11;  -27,200;    0,000;    0,000
 794,16;  -55,650;    0,000;    0,000
 794,22;  -82,500;    0,000;    0,000
 794,28;  -27,090;    0,000;    0,000
 794,34;   50,950;    0,000;    0,000
 794,40;  323,550;    0,000;    0,000
 794,46;  355,160;    0,000;    0,000
 794,51;  146,620;    0,000;    0,000
 794,57;  -94,680;    0,000;    0,000
 794,63;  -75,600;    0,000;    0,000
 794,69; -132,930;    0,000;    0,000
 794,75;  -76,420;    0,000;    0,000
 794,80; -137,880;    0,000;    0,000
 794,86;  -75,240;    0,000;    0,000
 794,92; -126,830;    0,000;    0,000
 794,98;  -54,940;    0,000;    0,000
 795,04; -176,980;    0,000;    0,000
 795,09;  -49,520;    0,000;    0,000
 795,15; -107,930;    0,000;    0,000
 795,21; -206,300;    0,000;    0,000
 795,27; -191,580;    0,000;    0,000
 795,33;  -35,120;    0,000;    0,000
 795,38; -181,310;    0,000;    0,000
 795,44;   77,730;    0,000;    0,000
 795,50; -148,530;    0,000;    0,000
 795,56; -112,900;    0,000;    0,000
 795,62; -129,730;    0,000;    0,000
 795,67; -134,960;    0,000;    0,000
 795,73;  -80,720;    0,000;    0,000
 795,79;  -67,640;    0,000;    0,000
 795,85; -163,800;    0,000;    0,000
 795,91; -107,850;    0,000;    0,000
 795,96;  -74,540;    0,000;    0,000
 796,02;   24,030;    0,000;    0,000
 796,08;  -91,870;    0,000;    0,000
 796,14; -138,940;    0,000;    0,000
 796,20;  -49,860;    0,000;    0,000
 796,25;  -47,050;    0,000;    0,000
 796,31; -114,790;    0,000;    0,000
 796,37;  -14,340;    0,000;    0,000
 796,43;   20,480;    0,000;    0,000
 796,48;  -29,990;    0,000;    0,000
 796,54; -182,190;    0,000;    0,000
 796,60;  -29,440;    0,000;    0,000
 796,66;  -85,020;    0,000;    0,000
 796,72;  -85,280;    0,000;    0,000
 796,77; -133,320;    0,000;    0,000
 796,83;  -57,860;    0,000;    0,000
 796,89; -195,590;    0,000;    0,000
 796,95; -118,900;    0,000;    0,000
 797,01;  -18,270;    0,000;    0,000
 797,06; -176,880;    0,000;    0,000
 797,12; -125,050;    0,000;    0,000
 797,18;   16,620;    0,000;    0,000
 797,24; -146,130;    0,000;    0,000
 797,29;  -70,480;    0,000;    0,000
 797,35; -150,130;    0,000;    0,000
 797,41;  -55,790;    0,000;    0,000
 797,47; -183,620;    0,000;    0,000
 797,53;   -3,450;    0,000;    0,000
 797,58; -105,680;    0,000;    0,000
 797,64;   14,690;    0,000;    0,000
 797,70; -167,600;    0,000;    0,000
 797,76; -126,350;    0,000;    0,000
 797,81;  -75,980;    0,000;    0,000
 797,87; -141,410;    0,000;    0,000
 797,93; -163,980;    0,000;    0,000
 797,99; -107,060;    0,000;    0,000
 798,04;  -26,370;    0,000;    0,000
 798,10;  -56,750;    0,000;    0,000
 798,16; -105,440;    0,000;    0,000
 798,22;  -75,330;    0,000;    0,000
 798,28; -111,720;    0,000;    0,000
 798,33;  -45,760;    0,000;    0,000
 798,39;  -13,260;    0,000;    0,000
 798,45; -121,960;    0,000;    0,000
 798,51; -182,800;    0,000;    0,000
 798,56;  -78,560;    0,000;    0,000
 798,62; -145,300;    0,000;    0,000
 798,68; -147,870;    0,000;    0,000
 798,74;  -41,230;    0,000;    0,000
 798,79; -103,850;    0,000;    0,000
 798,85; -108,760;    0,000;    0,000
 798,91;  -13,580;    0,000;    0,000
 798,97; -144,560;    0,000;    0,000
 799,02; -150,460;    0,000;    0,000
 799,08; -139,300;    0,000;    0,000
 799,14;   41,460;    0,000;    0,000
 799,20; -168,600;    0,000;    0,000
 799,25; -140,550;    0,000;    0,000
 799,31; -101,090;    0,000;    0,000
 799,37;  -17,660;    0,000;    0,000
 799,43; -125,970;    0,000;    0,000
 799,48;   -6,930;    0,000;    0,000
 799,54;  -79,500;    0,000;    0,000
 799,60; -198,750;    0,000;    0,000
 799,66; -117,120;    0,000;    0,000
 799,71;  -41,030;    0,000;    0,000
 799,77; -111,230;    0,000;    0,000
 799,83; -117,350;    0,000;    0,000
 799,89; -152,050;    0,000;    0,000
 799,94;  -79,960;    0,000;    0,000
 800,00;  -80,120;    0,000;    0,000
 800,06;  -71,140;    0,000;    0,000
 800,12;   -9,580;    0,000;    0,000
 800,17;   29,420;    0,000;    0,000
 800,23;   30,120;    0,000;    0,000
 800,29;   97,490;    0,000;    0,000
 800,35;  170,430;    0,000;    0,000
 800,40;  101,770;    0,000;    0,000
 800,46; -161,430;    0,000;    0,000
 800,52; -124,380;    0,000;    0,000
 800,58; -185,380;    0,000;    0,000
 800,63;  -60,230;    0,000;    0,000
 800,69; -151,370;    0,000;    0,000
 800,75;  -80,450;    0,000;    0,000
 800,81;  -85,590;    0,000;    0,000
 800,86;  -83,550;    0,000;    0,000
 800,92; -177,580;    0,000;    0,000
 800,98;  -13,780;    0,000;    0,000
 801,03; -116,010;    0,000;    0,000
 801,09;  -33,440;    0,000;    0,000
 801,15;  143,750;    0,000;    0,000
 801,21;  332,500;    0,000;    0,000
 801,26;  126,700;    0,000;    0,000
 801,32;  -56,840;    0,000;    0,000
 801,38;  -41,310;    0,000;    0,000
 801,44;  -23,870;    0,000;    0,000
 801,49;  -89,990;    0,000;    0,000
 801,55;  -80,220;    0,000;    0,000
 801,61; -114,280;    0,000;    0,000
 801,66;  -71,460;    0,000;    0,000
 801,72; -159,810;    0,000;    0,000
 801,78; -114,100;    0,000;    0,000
 801,84;  -49,380;    0,000;    0,000
 801,89;  -80,630;    0,000;    0,000
 801,95;  -62,480;    0,000;    0,000
 802,01;  -79,400;    0,000;    0,000
 802,07; -229,190;    0,000;    0,000
 802,12;  -60,750;    0,000;    0,000
 802,18; -131,160;    0,000;    0,000
 802,24;  -24,340;    0,000;    0,000
 802,29; -173,050;    0,000;    0,000
 802,35;  -84,490;    0,000;    0,000
 802,41; -203,420;    0,000;    0,000
 802,47;  -90,860;    0,000;    0,000
 802,52; -141,910;    0,000;    0,000
 802,58;   18,020;    0,000;    0,000
 802,64;  -58,380;    0,000;    0,000
 802,69; -104,700;    0,000;    0,000
 802,75; -170,260;    0,000;    0,000
 802,81;  -70,320;    0,000;    0,000
 802,87; -104,700;    0,000;    0,000
 802,92;  -85,800;    0,000;    0,000
 802,98; -161,620;    0,000;    0,000
 803,04;  -95,250;    0,000;    0,000
 803,09; -127,670;    0,000;    0,000
 803,15;  -62,670;    0,000;    0,000
 803,21; -167,710;    0,000;    0,000
 803,26; -101,930;    0,000;    0,000
 803,32; -150,950;    0,000;    0,000
 803,38;  -85,560;    0,000;    0,000
 803,44;  -79,690;    0,000;    0,000
 803,49; -157,400;    0,000;    0,000
 803,55; -145,870;    0,000;    0,000
 803,61; -118,520;    0,000;    0,000
 803,66; -119,510;    0,000;    0,000
 803,72; -162,300;    0,000;    0,000
 803,78; -130,610;    0,000;    0,000
 803,83; -100,450;    0,000;    0,000
 803,89; -148,290;    0,000;    0,000
 803,95;  -52,260;    0,000;    0,000
 804,01;  -70,790;    0,000;    0,000
 804,06; -181,250;    0,000;    0,000
 804,12; -169,970;    0,000;    0,000
 804,18; -120,830;    0,000;    0,000
 804,23; -199,010;    0,000;    0,000
 804,29;  -92,920;    0,000;    0,000
 804,35; -170,920;    0,000;    0,000
 804,40; -155,560;    0,000;    0,000
 804,46;  -65,450;    0,000;    0,000
 804,52;  -67,910;    0,000;    0,000
 804,57; -151,030;    0,000;    0,000
 804,63;  -80,240;    0,000;    0,000
 804,69;  -69,010;    0,000;    0,000
 804,75; -142,600;    0,000;    0,000
 804,80;  -71,600;    0,000;    0,000
 804,86;  -94,160;    0,000;    0,000
 804,92;  -73,860;    0,000;    0,000
 804,97; -111,500;    0,000;    0,000
 805,03; -148,680;    0,000;    0,000
 805,09;  -54,350;    0,000;    0,000
 805,14; -140,140;    0,000;    0,000
 805,20; -141,960;    0,000;    0,000
 805,26;  -89,430;    0,000;    0,000
 805,31; -113,790;    0,000;    0,000
 805,37; -107,120;    0,000;    0,000
 805,43;  -77,250;    0,000;    0,000
 805,48;  -24,890;    0,000;    0,000
 805,54;   32,800;    0,000;    0,000
 805,60;  -16,600;    0,000;    0,000
 805,65;   24,920;    0,000;    0,000
 805,71;  221,120;    0,000;    0,000
 805,77;  212,060;    0,000;    0,000
 805,82;  -53,400;    0,000;    0,000
 805,88;  -72,200;    0,000;    0,000
 805,94; -137,170;    0,000;    0,000
 805,99;  -82,500;    0,000;    0,000
 806,05; -176,210;    0,000;    0,000
 806,11;  -62,560;    0,000;    0,000
 806,16; -174,530;    0,000;    0,000
 806,22;   21,390;    0,000;    0,000
 806,28;   46,690;    0,000;    0,000
 806,33; -112,580;    0,000;    0,000
 806,39; -127,030;    0,000;    0,000
 806,45; -143,490;    0,000;    0,000
 806,50;  -72,090;    0,000;    0,000
 806,56; -151,560;    0,000;    0,000
 806,62;  -48,170;    0,000;    0,000
 806,67; -130,430;    0,000;    0,000
 806,73; -100,350;    0,000;    0,000
 806,79; -106,750;    0,000;    0,000
 806,84; -201,400;    0,000;    0,000
 806,90;  -54,480;    0,000;    0,000
 806,96;  -89,050;    0,000;    0,000
 807,01;  -80,750;    0,000;    0,000
 807,07; -137,430;    0,000;    0,000
 807,13;  -31,410;    0,000;    0,000
 807,18; -127,500;    0,000;    0,000
 807,24; -143,230;    0,000;    0,000
 807,30;  -28,620;    0,000;    0,000
 807,35; -126,880;    0,000;    0,000
 807,41; -107,860;    0,000;    0,000
 807,47;  -84,370;    0,000;    0,000
 807,52; -223,720;    0,000;    0,000
 807,58;   33,220;    0,000;    0,000
 807,64;  -26,050;    0,000;    0,000
 807,69; -119,110;    0,000;    0,000
 807,75; -146,300;    0,000;    0,000
 807,81;  -72,660;    0,000;    0,000
 807,86; -111,410;    0,000;    0,000
 807,92;  -78,250;    0,000;    0,000
 807,97; -114,640;    0,000;    0,000
 808,03; -164,090;    0,000;    0,000
 808,09; -103,980;    0,000;    0,000
 808,14; -120,420;    0,000;    0,000
 808,20; -130,730;    0,000;    0,000
 808,26;  -34,700;    0,000;    0,000
 808,31; -111,340;    0,000;    0,000
 808,37;  -92,050;    0,000;    0,000
 808,43; -190,700;    0,000;    0,000
 808,48; -110,650;    0,000;    0,000
 808,54;  -41,620;    0,000;    0,000
 808,60; -147,490;    0,000;    0,000
 808,65; -138,160;    0,000;    0,000
 808,71;   36,600;    0,000;    0,000
 808,76; -163,070;    0,000;    0,000
 808,82;  -68,790;    0,000;    0,000
 808,88; -154,150;    0,000;    0,000
 808,93; -152,260;    0,000;    0,000
 808,99; -155,850;    0,000;    0,000
 809,05; -122,020;    0,000;    0,000
 809,10;  -56,710;    0,000;    0,000
 809,16; -122,980;    0,000;    0,000
 809,22;  -21,710;    0,000;    0,000
 809,27; -110,350;    0,000;    0,000
 809,33; -134,540;    0,000;    0,000
 809,38;   -5,770;    0,000;    0,000
 809,44; -119,670;    0,000;    0,000
 809,50;  -46,510;    0,000;    0,000
 809,55; -124,870;    0,000;    0,000
 809,61; -148,950;    0,000;    0,000
 809,67; -186,570;    0,000;    0,000
 809,72; -146,320;    0,000;    0,000
 809,78;  -67,360;    0,000;    0,000
 809,83;  -77,560;    0,000;    0,000
 809,89;   -3,820;    0,000;    0,000
 809,95;  -67,350;    0,000;    0,000
 810,00; -136,730;    0,000;    0,000
 810,06;   72,560;    0,000;    0,000
 810,11;   94,220;    0,000;    0,000
 810,17;  318,820;    0,000;    0,000
 810,23;  812,350;    0,000;    0,000
 810,28; 1010,580;    0,000;    0,000
 810,34;  483,740;    0,000;    0,000
 810,40;   49,560;    0,000;    0,000
 810,45;  -84,840;    0,000;    0,000
 810,51;   -1,690;    0,000;    0,000
 810,56; -100,090;    0,000;    0,000
 810,62;   10,030;    0,000;    0,000
 810,68;  -64,030;    0,000;    0,000
 810,73; -109,360;    0,000;    0,000
 810,79;   -9,550;    0,000;    0,000
 810,84;  -11,230;    0,000;    0,000
 810,90;   56,730;    0,000;    0,000
 810,96;  332,360;    0,000;    0,000
 811,01;  610,980;    0,000;    0,000
 811,07; 1543,020;    0,000;    0,000
 811,13; 3635,590;    0,000;    0,000
 811,18; 4762,600;    0,000;    0,000
 811,24; 1913,440;    0,000;    0,000
 811,29;  938,330;    0,000;    0,000
 811,35; 1737,480;    0,000;    0,000
 811,41; 3028,020;    0,000;    0,000
 811,46; 1821,160;    0,000;    0,000
 811,52;  245,530;    0,000;    0,000
 811,57;  -56,650;    0,000;    0,000
 811,63;  -47,080;    0,000;    0,000
 811,69;   54,970;    0,000;    0,000
 811,74; -124,320;    0,000;    0,000
 811,80;  -62,560;    0,000;    0,000
 811,85;   10,700;    0,000;    0,000
 811,91;  -54,270;    0,000;    0,000
 811,97;  -60,640;    0,000;    0,000
 812,02; -106,850;    0,000;    0,000
 812,08; -150,870;    0,000;    0,000
 812,13; -133,460;    0,000;    0,000
 812,19; -139,360;    0,000;    0,000
 812,24;  -85,700;    0,000;    0,000
 812,30; -124,900;    0,000;    0,000
 812,36; -160,780;    0,000;    0,000
 812,41;  -43,930;    0,000;    0,000
 812,47; -106,590;    0,000;    0,000
 812,52;  -93,030;    0,000;    0,000
 812,58; -166,430;    0,000;    0,000
 812,64;   41,750;    0,000;    0,000
 812,69;  -45,420;    0,000;    0,000
 812,75; -104,440;    0,000;    0,000
 812,80; -187,580;    0,000;    0,000
 812,86; -114,570;    0,000;    0,000
 812,92;  -96,130;    0,000;    0,000
 812,97;  -13,380;    0,000;    0,000
 813,03; -166,810;    0,000;    0,000
 813,08; -109,000;    0,000;    0,000
 813,14;  -72,800;    0,000;    0,000
 813,19; -103,550;    0,000;    0,000
 813,25; -173,440;    0,000;    0,000
 813,31; -131,270;    0,000;    0,000
 813,36; -120,050;    0,000;    0,000
 813,42; -152,360;    0,000;    0,000
 813,47; -183,400;    0,000;    0,000
 813,53;  -18,950;    0,000;    0,000
 813,58;    5,150;    0,000;    0,000
 813,64;  -33,900;    0,000;    0,000
 813,70; -169,740;    0,000;    0,000
 813,75;  -70,720;    0,000;    0,000
 813,81;  -77,170;    0,000;    0,000
 813,86; -106,570;    0,000;    0,000
 813,92; -185,040;    0,000;    0,000
 813,97;  -99,180;    0,000;    0,000
 814,03; -126,980;    0,000;    0,000
 814,09;  -60,560;    0,000;    0,000
 814,14; -117,860;    0,000;    0,000
 814,20; -160,670;    0,000;    0,000
 814,25; -129,070;    0,000;    0,000
 814,31; -117,020;    0,000;    0,000
 814,36;  -19,870;    0,000;    0,000
 814,42; -148,690;    0,000;    0,000
 814,48; -145,790;    0,000;    0,000
 814,53;  -74,460;    0,000;    0,000
 814,59; -157,730;    0,000;    0,000
 814,64;  -95,170;    0,000;    0,000
 814,70; -131,500;    0,000;    0,000
 814,75;  -73,370;    0,000;    0,000
 814,81; -149,000;    0,000;    0,000
 814,86;  -79,790;    0,000;    0,000
 814,92;  -77,620;    0,000;    0,000
 814,98;  -78,420;    0,000;    0,000
 815,03;  -89,040;    0,000;    0,000
 815,09; -100,340;    0,000;    0,000
 815,14; -185,410;    0,000;    0,000
 815,20; -149,760;    0,000;    0,000
 815,25; -135,500;    0,000;    0,000
 815,31; -105,830;    0,000;    0,000
 815,36; -128,130;    0,000;    0,000
 815,42;  -43,680;    0,000;    0,000
 815,48; -107,060;    0,000;    0,000
 815,53;  -43,770;    0,000;    0,000
 815,59; -106,130;    0,000;    0,000
 815,64; -106,710;    0,000;    0,000
 815,70; -135,500;    0,000;    0,000
 815,75; -123,180;    0,000;    0,000
 815,81; -159,610;    0,000;    0,000
 815,86;  -61,310;    0,000;    0,000
 815,92;   27,950;    0,000;    0,000
 815,97;  -59,390;    0,000;    0,000
 816,03;  -94,940;    0,000;    0,000
 816,09; -150,800;    0,000;    0,000
 816,14; -165,020;    0,000;    0,000
 816,20;  -83,070;    0,000;    0,000
 816,25;  -64,040;    0,000;    0,000
 816,31; -105,710;    0,000;    0,000
 816,36; -184,500;    0,000;    0,000
 816,42;  -55,090;    0,000;    0,000
 816,47; -173,250;    0,000;    0,000
 816,53; -106,630;    0,000;    0,000
 816,58;  -95,800;    0,000;    0,000
 816,64;  -95,890;    0,000;    0,000
 816,69;  -52,440;    0,000;    0,000
 816,75;  -65,810;    0,000;    0,000
 816,81; -105,820;    0,000;    0,000
 816,86; -118,460;    0,000;    0,000
 816,92; -153,800;    0,000;    0,000
 816,97;   -2,460;    0,000;    0,000
 817,03; -113,010;    0,000;    0,000
 817,08;  -57,900;    0,000;    0,000
 817,14;  -29,180;    0,000;    0,000
 817,19; -136,170;    0,000;    0,000
 817,25; -118,360;    0,000;    0,000
 817,30;   -7,900;    0,000;    0,000
 817,36; -108,220;    0,000;    0,000
 817,41;  -93,300;    0,000;    0,000
 817,47; -200,530;    0,000;    0,000
 817,52;  -48,340;    0,000;    0,000
 817,58; -123,840;    0,000;    0,000
 817,63;  -18,600;    0,000;    0,000
 817,69;  -74,970;    0,000;    0,000
 817,74;   -4,720;    0,000;    0,000
 817,80;  -44,860;    0,000;    0,000
 817,85;  -80,990;    0,000;    0,000
 817,91; -154,560;    0,000;    0,000
 817,97; -131,320;    0,000;    0,000
 818,02;  -86,460;    0,000;    0,000
 818,08;  -46,950;    0,000;    0,000
 818,13; -100,040;    0,000;    0,000
 818,19; -107,210;    0,000;    0,000
 818,24; -158,640;    0,000;    0,000
 818,30;  -48,410;    0,000;    0,000
 818,35; -109,270;    0,000;    0,000
 818,41;  -58,470;    0,000;    0,000
 818,46;  -79,210;    0,000;    0,000
 818,52;  -15,570;    0,000;    0,000
 818,57; -141,480;    0,000;    0,000
 818,63; -111,070;    0,000;    0,000
 818,68;  -96,340;    0,000;    0,000
 818,74;  -82,810;    0,000;    0,000
 818,79;  -46,010;    0,000;    0,000
 818,85;   76,740;    0,000;    0,000
 818,90;  165,340;    0,000;    0,000
 818,96;  237,590;    0,000;    0,000
 819,01;  339,590;    0,000;    0,000
 819,07;   81,150;    0,000;    0,000
 819,12;  -59,670;    0,000;    0,000
 819,18;  -95,570;    0,000;    0,000
 819,23; -183,320;    0,000;    0,000
 819,29;  -58,420;    0,000;    0,000
 819,34;  -54,090;    0,000;    0,000
 819,40; -125,080;    0,000;    0,000
 819,45; -113,740;    0,000;    0,000
 819,51;  -16,200;    0,000;    0,000
 819,56; -146,310;    0,000;    0,000
 819,62;  -11,800;    0,000;    0,000
 819,67; -173,430;    0,000;    0,000
 819,73;  -57,910;    0,000;    0,000
 819,78;  -86,680;    0,000;    0,000
 819,84; -129,230;    0,000;    0,000
 819,89; -178,320;    0,000;    0,000
 819,95; -122,960;    0,000;    0,000
 820,00; -178,610;    0,000;    0,000
 820,06;  -92,610;    0,000;    0,000
 820,11; -107,260;    0,000;    0,000
 820,17; -186,170;    0,000;    0,000
 820,22;    6,420;    0,000;    0,000
 820,28; -134,500;    0,000;    0,000
 820,33;  -41,250;    0,000;    0,000
 820,39; -128,190;    0,000;    0,000
 820,44; -207,900;    0,000;    0,000
 820,50;  -20,080;    0,000;    0,000
 820,55;  -94,510;    0,000;    0,000
 820,61;  -96,010;    0,000;    0,000
 820,66;   -1,770;    0,000;    0,000
 820,71; -108,260;    0,000;    0,000
 820,77;  -87,380;    0,000;    0,000
 820,82; -107,950;    0,000;    0,000
 820,88;   -8,220;    0,000;    0,000
 820,93; -148,890;    0,000;    0,000
 820,99; -109,150;    0,000;    0,000
 821,04;  -65,950;    0,000;    0,000
 821,10; -138,180;    0,000;    0,000
 821,15;  -66,510;    0,000;    0,000
 821,21;  -60,630;    0,000;    0,000
 821,26;  -70,220;    0,000;    0,000
 821,32;  -69,270;    0,000;    0,000
 821,37;  -99,730;    0,000;    0,000
 821,43; -136,300;    0,000;    0,000
 821,48;  -81,690;    0,000;    0,000
 821,54;  -45,270;    0,000;    0,000
 821,59;  -48,760;    0,000;    0,000
 821,65;  -59,110;    0,000;    0,000
 821,70; -110,440;    0,000;    0,000
 821,75; -138,030;    0,000;    0,000
 821,81;  -65,560;    0,000;    0,000
 821,86; -102,340;    0,000;    0,000
 821,92; -154,200;    0,000;    0,000
 821,97; -214,880;    0,000;    0,000
 822,03;  -19,290;    0,000;    0,000
 822,08; -145,530;    0,000;    0,000
 822,14;  -15,100;    0,000;    0,000
 822,19;  -46,450;    0,000;    0,000
 822,25;   32,620;    0,000;    0,000
 822,30; -225,960;    0,000;    0,000
 822,36; -127,430;    0,000;    0,000
 822,41;  -72,010;    0,000;    0,000
 822,46;  -95,810;    0,000;    0,000
 822,52; -142,990;    0,000;    0,000
 822,57;   49,190;    0,000;    0,000
 822,63; -120,690;    0,000;    0,000
 822,68;  -38,150;    0,000;    0,000
 822,74;  -86,890;    0,000;    0,000
 822,79;  -26,070;    0,000;    0,000
 822,85; -152,430;    0,000;    0,000
 822,90;  -34,420;    0,000;    0,000
 822,96;   20,780;    0,000;    0,000
 823,01;  104,720;    0,000;    0,000
 823,06;  369,010;    0,000;    0,000
 823,12;  574,760;    0,000;    0,000
 823,17; 1575,150;    0,000;    0,000
 823,23; 2300,980;    0,000;    0,000
 823,28;  848,660;    0,000;    0,000
 823,34;  159,670;    0,000;    0,000
 823,39; -143,230;    0,000;    0,000
 823,45;  -36,160;    0,000;    0,000
 823,50;  -49,670;    0,000;    0,000
 823,55;  -95,650;    0,000;    0,000
 823,61;    1,740;    0,000;    0,000
 823,66;  -78,900;    0,000;    0,000
 823,72;  -77,210;    0,000;    0,000
 823,77;  -92,130;    0,000;    0,000
 823,83; -164,370;    0,000;    0,000
 823,88; -101,650;    0,000;    0,000
 823,94; -166,190;    0,000;    0,000
 823,99; -142,010;    0,000;    0,000
 824,04;  -98,790;    0,000;    0,000
 824,10;  -70,300;    0,000;    0,000
 824,15; -133,140;    0,000;    0,000
 824,21; -118,220;    0,000;    0,000
 824,26; -131,660;    0,000;    0,000
 824,32;  -24,530;    0,000;    0,000
 824,37; -198,520;    0,000;    0,000
 824,42; -120,280;    0,000;    0,000
 824,48; -191,270;    0,000;    0,000
 824,53; -133,950;    0,000;    0,000
 824,59; -155,560;    0,000;    0,000
 824,64;  -75,530;    0,000;    0,000
 824,70; -123,910;    0,000;    0,000
 824,75; -132,390;    0,000;    0,000
 824,80; -140,950;    0,000;    0,000
 824,86; -115,000;    0,000;    0,000
 824,91;  -95,290;    0,000;    0,000
 824,97;  -75,540;    0,000;    0,000
 825,02; -133,020;    0,000;    0,000
 825,08;  -69,690;    0,000;    0,000
 825,13; -177,030;    0,000;    0,000
 825,18;   25,050;    0,000;    0,000
 825,24;  -64,610;    0,000;    0,000
 825,29;  -31,760;    0,000;    0,000
 825,35;  -81,540;    0,000;    0,000
 825,40;  -25,760;    0,000;    0,000
 825,46; -109,270;    0,000;    0,000
 825,51;  -38,900;    0,000;    0,000
 825,56;  -89,810;    0,000;    0,000
 825,62;  -42,870;    0,000;    0,000
 825,67; -107,950;    0,000;    0,000
 825,73;  -86,360;    0,000;    0,000
 825,78;  -76,530;    0,000;    0,000
 825,83; -101,290;    0,000;    0,000
 825,89; -147,810;    0,000;    0,000
 825,94;  -71,400;    0,000;    0,000
 826,00;  -73,850;    0,000;    0,000
 826,05;  -84,240;    0,000;    0,000
 826,10; -154,270;    0,000;    0,000
 826,16;  -87,060;    0,000;    0,000
 826,21; -102,690;    0,000;    0,000
 826,27;   72,970;    0,000;    0,000
 826,32;   65,760;    0,000;    0,000
 826,38;  321,220;    0,000;    0,000
 826,43;  500,510;    0,000;    0,000
 826,48;  375,000;    0,000;    0,000
 826,54;  115,360;    0,000;    0,000
 826,59;   41,460;    0,000;    0,000
 826,65;  -82,700;    0,000;    0,000
 826,70;  -52,050;    0,000;    0,000
 826,75; -115,240;    0,000;    0,000
 826,81;  -44,470;    0,000;    0,000
 826,86;  -53,840;    0,000;    0,000
 826,92; -116,000;    0,000;    0,000
 826,97; -231,030;    0,000;    0,000
 827,02; -118,050;    0,000;    0,000
 827,08; -137,940;    0,000;    0,000
 827,13;  -10,560;    0,000;    0,000
 827,18; -178,790;    0,000;    0,000
 827,24; -118,040;    0,000;    0,000
 827,29; -180,360;    0,000;    0,000
 827,35;  -93,880;    0,000;    0,000
 827,40; -118,420;    0,000;    0,000
 827,45;  -33,490;    0,000;    0,000
 827,51; -211,430;    0,000;    0,000
 827,56;  -85,320;    0,000;    0,000
 827,62;  -65,070;    0,000;    0,000
 827,67; -135,810;    0,000;    0,000
 827,72; -120,450;    0,000;    0,000
 827,78;  -79,420;    0,000;    0,000
 827,83; -110,530;    0,000;    0,000
 827,89;  -35,240;    0,000;    0,000
 827,94; -133,110;    0,000;    0,000
 827,99;  139,700;    0,000;    0,000
 828,05;  162,240;    0,000;    0,000
 828,10;  748,710;    0,000;    0,000
 828,15;  828,210;    0,000;    0,000
 828,21;  400,860;    0,000;    0,000
 828,26;   49,110;    0,000;    0,000
 828,32; -103,620;    0,000;    0,000
 828,37; -190,050;    0,000;    0,000
 828,42;  -33,470;    0,000;    0,000
 828,48; -106,230;    0,000;    0,000
 828,53;  236,380;    0,000;    0,000
 828,58; -112,990;    0,000;    0,000
 828,64;  -98,040;    0,000;    0,000
 828,69; -149,900;    0,000;    0,000
 828,75; -103,350;    0,000;    0,000
 828,80; -137,130;    0,000;    0,000
 828,85; -104,650;    0,000;    0,000
 828,91;  -81,960;    0,000;    0,000
 828,96; -139,760;    0,000;    0,000
 829,01; -105,350;    0,000;    0,000
 829,07;  -57,740;    0,000;    0,000
 829,12; -131,520;    0,000;    0,000
 829,18;  -41,760;    0,000;    0,000
 829,23;  -72,790;    0,000;    0,000
 829,28; -107,470;    0,000;    0,000
 829,34; -222,280;    0,000;    0,000
 829,39;  -81,570;    0,000;    0,000
 829,44;  -75,290;    0,000;    0,000
 829,50;  -83,480;    0,000;    0,000
 829,55; -168,580;    0,000;    0,000
 829,60;    2,490;    0,000;    0,000
 829,66; -160,720;    0,000;    0,000
 829,71; -111,400;    0,000;    0,000
 829,77; -108,810;    0,000;    0,000
 829,82;    1,860;    0,000;    0,000
 829,87;   50,050;    0,000;    0,000
 829,93;  333,570;    0,000;    0,000
 829,98;  392,900;    0,000;    0,000
 830,03;   71,180;    0,000;    0,000
 830,09;  -34,280;    0,000;    0,000
 830,14; -147,460;    0,000;    0,000
 830,19;  -19,790;    0,000;    0,000
 830,25;  -94,310;    0,000;    0,000
 830,30;  -96,050;    0,000;    0,000
 830,35; -141,120;    0,000;    0,000
 830,41; -174,640;    0,000;    0,000
 830,46; -145,580;    0,000;    0,000
 830,51; -135,670;    0,000;    0,000
 830,57;  -98,950;    0,000;    0,000
 830,62; -139,930;    0,000;    0,000
 830,68; -144,330;    0,000;    0,000
 830,73;  -58,060;    0,000;    0,000
 830,78; -121,370;    0,000;    0,000
 830,84; -142,470;    0,000;    0,000
 830,89;  -63,010;    0,000;    0,000
 830,94;  -80,770;    0,000;    0,000
 831,00; -129,330;    0,000;    0,000
 831,05; -152,620;    0,000;    0,000
 831,10; -184,610;    0,000;    0,000
 831,16;  -87,010;    0,000;    0,000
 831,21;  -98,860;    0,000;    0,000
 831,26; -133,880;    0,000;    0,000
 831,32;  -70,190;    0,000;    0,000
 831,37;  -96,960;    0,000;    0,000
 831,42;  -83,860;    0,000;    0,000
 831,48; -123,640;    0,000;    0,000
 831,53; -171,760;    0,000;    0,000
 831,58; -133,620;    0,000;    0,000
 831,64; -193,880;    0,000;    0,000
 831,69; -192,060;    0,000;    0,000
 831,74; -179,420;    0,000;    0,000
 831,80; -137,240;    0,000;    0,000
 831,85; -128,490;    0,000;    0,000
 831,90; -156,880;    0,000;    0,000
 831,96; -128,510;    0,000;    0,000
 832,01; -186,830;    0,000;    0,000
 832,06; -156,860;    0,000;    0,000
 832,12; -239,590;    0,000;    0,000
 832,17; -119,650;    0,000;    0,000
 832,22;  -26,760;    0,000;    0,000
 832,28;   -5,810;    0,000;    0,000
 832,33; -176,830;    0,000;    0,000
 832,38; -145,550;    0,000;    0,000
 832,44;  -96,100;    0,000;    0,000
 832,49;  -18,590;    0,000;    0,000
 832,54; -144,930;    0,000;    0,000
 832,59;  -74,530;    0,000;    0,000
 832,65; -113,020;    0,000;    0,000
 832,70;  -76,630;    0,000;    0,000
 832,75;  -92,170;    0,000;    0,000
 832,81;  -82,850;    0,000;    0,000
 832,86;  -61,450;    0,000;    0,000
 832,91;  -26,810;    0,000;    0,000
 832,97;  -77,950;    0,000;    0,000
 833,02; -135,000;    0,000;    0,000
 833,07; -179,590;    0,000;    0,000
 833,13;  -72,500;    0,000;    0,000
 833,18; -190,930;    0,000;    0,000
 833,23; -100,770;    0,000;    0,000
 833,29; -218,030;    0,000;    0,000
 833,34; -157,130;    0,000;    0,000
 833,39;  -78,070;    0,000;    0,000
 833,44; -170,130;    0,000;    0,000
 833,50;  -64,210;    0,000;    0,000
 833,55;  -90,280;    0,000;    0,000
 833,60; -208,360;    0,000;    0,000
 833,66; -128,590;    0,000;    0,000
 833,71; -193,830;    0,000;    0,000
 833,76; -118,160;    0,000;    0,000
 833,82;  -56,380;    0,000;    0,000
 833,87; -146,950;    0,000;    0,000
 833,92; -111,190;    0,000;    0,000
 833,98;  -21,360;    0,000;    0,000
 834,03; -159,430;    0,000;    0,000
 834,08; -228,230;    0,000;    0,000
 834,13; -129,130;    0,000;    0,000
 834,19;  -63,100;    0,000;    0,000
 834,24; -153,330;    0,000;    0,000
 834,29; -154,160;    0,000;    0,000
 834,35; -114,020;    0,000;    0,000
 834,40;  -42,830;    0,000;    0,000
 834,45;    7,220;    0,000;    0,000
 834,50; -105,130;    0,000;    0,000
 834,56; -171,570;    0,000;    0,000
 834,61;  -75,870;    0,000;    0,000
 834,66; -119,370;    0,000;    0,000
 834,72; -121,360;    0,000;    0,000
 834,77;  -70,380;    0,000;    0,000
 834,82;  -32,130;    0,000;    0,000
 834,88;  141,240;    0,000;    0,000
 834,93;  193,910;    0,000;    0,000
 834,98;  -26,300;    0,000;    0,000
 835,03;  -33,810;    0,000;    0,000
 835,09;  -98,420;    0,000;    0,000
 835,14;   22,290;    0,000;    0,000
 835,19; -173,590;    0,000;    0,000
 835,24; -178,250;    0,000;    0,000
 835,30;  -97,340;    0,000;    0,000
 835,35; -116,500;    0,000;    0,000
 835,40;  -76,270;    0,000;    0,000
 835,46;  -24,340;    0,000;    0,000
 835,51; -190,010;    0,000;    0,000
 835,56; -152,810;    0,000;    0,000
 835,61;  -54,470;    0,000;    0,000
 835,67;  -91,440;    0,000;    0,000
 835,72;  -29,710;    0,000;    0,000
 835,77; -103,720;    0,000;    0,000
 835,83; -194,030;    0,000;    0,000
 835,88; -101,960;    0,000;    0,000
 835,93; -121,340;    0,000;    0,000
 835,98; -132,650;    0,000;    0,000
 836,04;  -89,910;    0,000;    0,000
 836,09;  -53,620;    0,000;    0,000
 836,14; -135,720;    0,000;    0,000
 836,19; -130,240;    0,000;    0,000
 836,25; -102,580;    0,000;    0,000
 836,30;  -90,520;    0,000;    0,000
 836,35;  -66,470;    0,000;    0,000
 836,41; -155,960;    0,000;    0,000
 836,46; -139,840;    0,000;    0,000
 836,51;  -97,380;    0,000;    0,000
 836,56; -106,310;    0,000;    0,000
 836,62;  -72,650;    0,000;    0,000
 836,67; -162,700;    0,000;    0,000
 836,72; -154,230;    0,000;    0,000
 836,77; -143,400;    0,000;    0,000
 836,83; -130,800;    0,000;    0,000
 836,88; -183,170;    0,000;    0,000
 836,93; -120,720;    0,000;    0,000
 836,98;  -38,320;    0,000;    0,000
 837,04;  -98,960;    0,000;    0,000
 837,09; -120,170;    0,000;    0,000
 837,14;  -49,530;    0,000;    0,000
 837,19; -128,200;    0,000;    0,000
 837,25; -100,910;    0,000;    0,000
 837,30; -185,580;    0,000;    0,000
 837,35;  -45,860;    0,000;    0,000
 837,40; -232,510;    0,000;    0,000
 837,46; -129,430;    0,000;    0,000
 837,51;  -91,240;    0,000;    0,000
 837,56;  -79,810;    0,000;    0,000
 837,61; -120,530;    0,000;    0,000
 837,67; -136,460;    0,000;    0,000
 837,72; -101,620;    0,000;    0,000
 837,77; -135,820;    0,000;    0,000
 837,82; -107,650;    0,000;    0,000
 837,88;  -34,490;    0,000;    0,000
 837,93; -102,380;    0,000;    0,000
 837,98;  -99,950;    0,000;    0,000
 838,03;  -83,710;    0,000;    0,000
 838,09; -102,170;    0,000;    0,000
 838,14; -226,410;    0,000;    0,000
 838,19; -128,120;    0,000;    0,000
 838,24;  -42,460;    0,000;    0,000
 838,30; -178,660;    0,000;    0,000
 838,35;  -42,190;    0,000;    0,000
 838,40;  -94,350;    0,000;    0,000
 838,45; -151,980;    0,000;    0,000
 838,51; -104,670;    0,000;    0,000
 838,56; -214,870;    0,000;    0,000
 838,61;  -81,860;    0,000;    0,000
 838,66; -167,250;    0,000;    0,000
 838,71;  -96,310;    0,000;    0,000
 838,77; -162,490;    0,000;    0,000
 838,82;  -96,970;    0,000;    0,000
 838,87; -121,840;    0,000;    0,000
 838,92;  -75,560;    0,000;    0,000
 838,98; -148,540;    0,000;    0,000
 839,03;   -8,100;    0,000;    0,000
 839,08; -147,510;    0,000;    0,000
 839,13;  -88,310;    0,000;    0,000
 839,19; -215,350;    0,000;    0,000
 839,24; -125,620;    0,000;    0,000
 839,29; -156,950;    0,000;    0,000
 839,34;  -56,560;    0,000;    0,000
 839,39; -158,720;    0,000;    0,000
 839,45;  -79,320;    0,000;    0,000
 839,50; -133,140;    0,000;    0,000
 839,55; -113,240;    0,000;    0,000
 839,60; -154,670;    0,000;    0,000
 839,66;  -30,610;    0,000;    0,000
 839,71; -141,270;    0,000;    0,000
 839,76;  -36,570;    0,000;    0,000
 839,81;  -87,810;    0,000;    0,000
 839,86; -122,270;    0,000;    0,000
 839,92; -121,280;    0,000;    0,000
 839,97; -103,550;    0,000;    0,000
 840,02;  -72,940;    0,000;    0,000
 840,07;  -64,980;    0,000;    0,000
 840,12;  -95,260;    0,000;    0,000
 840,18; -179,610;    0,000;    0,000
 840,23;  -82,660;    0,000;    0,000
 840,28;  -56,900;    0,000;    0,000
 840,33; -110,520;    0,000;    0,000
 840,39; -198,600;    0,000;    0,000
 840,44; -203,490;    0,000;    0,000
 840,49; -184,080;    0,000;    0,000
 840,54; -183,850;    0,000;    0,000
 840,59; -101,880;    0,000;    0,000
 840,65;  -41,830;    0,000;    0,000
 840,70;  -94,910;    0,000;    0,000
 840,75; -174,020;    0,000;    0,000
 840,80;  -20,820;    0,000;    0,000
 840,85; -107,460;    0,000;    0,000
 840,91; -145,130;    0,000;    0,000
 840,96;  -72,750;    0,000;    0,000
 841,01;  -29,570;    0,000;    0,000
 841,06;   27,100;    0,000;    0,000
 841,11;  213,270;    0,000;    0,000
 841,17;  167,460;    0,000;    0,000
 841,22;  193,250;    0,000;    0,000
 841,27; -101,300;    0,000;    0,000
 841,32;  -74,300;    0,000;    0,000
 841,37; -184,390;    0,000;    0,000
 841,43;  -97,830;    0,000;    0,000
 841,48; -179,160;    0,000;    0,000
 841,53;   26,090;    0,000;    0,000
 841,58;  -79,900;    0,000;    0,000
 841,63; -117,290;    0,000;    0,000
 841,68; -177,280;    0,000;    0,000
 841,74; -147,780;    0,000;    0,000
 841,79;  -99,340;    0,000;    0,000
 841,84; -128,250;    0,000;    0,000
 841,89; -104,270;    0,000;    0,000
 841,94; -104,260;    0,000;    0,000
 842,00; -128,140;    0,000;    0,000
 842,05; -125,120;    0,000;    0,000
 842,10; -109,900;    0,000;    0,000
 842,15;  -53,860;    0,000;    0,000
 842,20; -108,360;    0,000;    0,000
 842,26; -101,130;    0,000;    0,000
 842,31; -157,920;    0,000;    0,000
 842,36; -119,300;    0,000;    0,000
 842,41; -140,860;    0,000;    0,000
 842,46; -106,090;    0,000;    0,000
 842,51;   27,690;    0,000;    0,000
 842,57;  -25,160;    0,000;    0,000
 842,62;  -85,570;    0,000;    0,000
 842,67;  -31,670;    0,000;    0,000
 842,72;   87,240;    0,000;    0,000
 842,77;  394,100;    0,000;    0,000
 842,82;  340,680;    0,000;    0,000
 842,88;  145,790;    0,000;    0,000
 842,93;  -82,980;    0,000;    0,000
 842,98; -112,900;    0,000;    0,000
 843,03; -116,860;    0,000;    0,000
 843,08; -133,470;    0,000;    0,000
 843,14;  -83,380;    0,000;    0,000
 843,19;  -39,940;    0,000;    0,000
 843,24;  -51,850;    0,000;    0,000
 843,29; -150,190;    0,000;    0,000
 843,34; -164,390;    0,000;    0,000
 843,39; -137,800;    0,000;    0,000
 843,44;  -90,390;    0,000;    0,000
 843,50; -122,350;    0,000;    0,000
 843,55; -171,980;    0,000;    0,000
 843,60;  -20,200;    0,000;    0,000
 843,65;  -90,300;    0,000;    0,000
 843,70;   -7,570;    0,000;    0,000
 843,75;  -80,250;    0,000;    0,000
 843,81;  -96,870;    0,000;    0,000
 843,86; -148,890;    0,000;    0,000
 843,91;  -88,720;    0,000;    0,000
 843,96; -142,760;    0,000;    0,000
 844,01;  -96,980;    0,000;    0,000
 844,06;  -91,170;    0,000;    0,000
 844,12;  -67,690;    0,000;    0,000
 844,17;  -57,500;    0,000;    0,000
 844,22; -148,500;    0,000;    0,000
 844,27; -106,290;    0,000;    0,000
 844,32;  -57,410;    0,000;    0,000
 844,37; -136,190;    0,000;    0,000
 844,42;  -93,480;    0,000;    0,000
 844,48;  -78,300;    0,000;    0,000
 844,53;  -55,080;    0,000;    0,000
 844,58;  -24,870;    0,000;    0,000
 844,63;   76,790;    0,000;    0,000
 844,68;  148,510;    0,000;    0,000
 844,73;  245,660;    0,000;    0,000
 844,78;  461,340;    0,000;    0,000
 844,84; 1023,520;    0,000;    0,000
 844,89; 2133,720;    0,000;    0,000
 844,94; 4030,920;    0,000;    0,000
 844,99; 8665,690;    0,000;    0,000
 845,04;11798,620;    0,000;    0,000
 845,09; 6938,040;    0,000;    0,000
 845,14; 1916,220;    0,000;    0,000
 845,20;  276,440;    0,000;    0,000
 845,25;  128,960;    0,000;    0,000
 845,30;  144,110;    0,000;    0,000
 845,35;    6,060;    0,000;    0,000
 845,40;   70,070;    0,000;    0,000
 845,45;  457,380;    0,000;    0,000
 845,50;   30,200;    0,000;    0,000
 845,56;    4,340;    0,000;    0,000
 845,61; -104,640;    0,000;    0,000
 845,66;    9,800;    0,000;    0,000
 845,71;   -9,880;    0,000;    0,000
 845,76;  -20,380;    0,000;    0,000
 845,81;  -73,480;    0,000;    0,000
 845,86;  -89,180;    0,000;    0,000
 845,91; -217,600;    0,000;    0,000
 845,97; -160,900;    0,000;    0,000
 846,02;  -67,830;    0,000;    0,000
 846,07; -123,970;    0,000;    0,000
 846,12; -215,780;    0,000;    0,000
 846,17;  -52,210;    0,000;    0,000
 846,22; -125,970;    0,000;    0,000
 846,27;   -7,560;    0,000;    0,000
 846,32;  -32,930;    0,000;    0,000
 846,38;  -91,290;    0,000;    0,000
 846,43;  -58,640;    0,000;    0,000
 846,48; -151,450;    0,000;    0,000
 846,53; -157,320;    0,000;    0,000
 846,58; -107,400;    0,000;    0,000
 846,63; -209,530;    0,000;    0,000
 846,68;  -90,720;    0,000;    0,000
 846,73;  -96,750;    0,000;    0,000
 846,79;  -39,350;    0,000;    0,000
 846,84; -155,010;    0,000;    0,000
 846,89;  -85,590;    0,000;    0,000
 846,94;  -12,390;    0,000;    0,000
 846,99;  -65,570;    0,000;    0,000
 847,04;  -50,690;    0,000;    0,000
 847,09;   82,510;    0,000;    0,000
 847,14; -138,100;    0,000;    0,000
 847,19; -114,240;    0,000;    0,000
 847,25; -165,410;    0,000;    0,000
 847,30;  -63,130;    0,000;    0,000
 847,35;  -84,090;    0,000;    0,000
 847,40;  -72,990;    0,000;    0,000
 847,45; -117,990;    0,000;    0,000
 847,50;  -28,910;    0,000;    0,000
 847,55; -179,270;    0,000;    0,000
 847,60;  -60,230;    0,000;    0,000
 847,65; -108,280;    0,000;    0,000
 847,70; -103,310;    0,000;    0,000
 847,76; -161,510;    0,000;    0,000
 847,81;  -29,590;    0,000;    0,000
 847,86; -166,640;    0,000;    0,000
 847,91;  -53,850;    0,000;    0,000
 847,96; -123,060;    0,000;    0,000
 848,01;  -88,990;    0,000;    0,000
 848,06; -169,930;    0,000;    0,000
 848,11;  -49,750;    0,000;    0,000
 848,16;  -81,030;    0,000;    0,000
 848,21;  -92,210;    0,000;    0,000
 848,27;  -67,040;    0,000;    0,000
 848,32; -119,460;    0,000;    0,000
 848,37; -169,970;    0,000;    0,000
 848,42;  -54,340;    0,000;    0,000
 848,47;  -24,960;    0,000;    0,000
 848,52; -138,590;    0,000;    0,000
 848,57; -157,750;    0,000;    0,000
 848,62; -147,210;    0,000;    0,000
 848,67; -107,830;    0,000;    0,000
 848,72; -115,550;    0,000;    0,000
 848,77; -179,800;    0,000;    0,000
 848,83;  -23,150;    0,000;    0,000
 848,88; -151,910;    0,000;    0,000
 848,93;   33,360;    0,000;    0,000
 848,98;  -79,180;    0,000;    0,000
 849,03;  -34,090;    0,000;    0,000
 849,08;  -46,720;    0,000;    0,000
 849,13; -145,500;    0,000;    0,000
 849,18; -181,630;    0,000;    0,000
 849,23;  -97,900;    0,000;    0,000
 849,28; -148,550;    0,000;    0,000
 849,33;  -11,710;    0,000;    0,000
 849,38; -180,280;    0,000;    0,000
 849,43; -105,640;    0,000;    0,000
 849,49; -110,610;    0,000;    0,000
 849,54;  -64,910;    0,000;    0,000
 849,59;  -91,770;    0,000;    0,000
 849,64; -127,570;    0,000;    0,000
 849,69; -154,320;    0,000;    0,000
 849,74;   -4,860;    0,000;    0,000
 849,79; -139,510;    0,000;    0,000
 849,84; -154,370;    0,000;    0,000
 849,89; -200,760;    0,000;    0,000
 849,94;  -88,630;    0,000;    0,000
 849,99;  -98,850;    0,000;    0,000
 850,04;  -61,170;    0,000;    0,000
 850,09;  -21,360;    0,000;    0,000
 850,14; -165,710;    0,000;    0,000
 850,20; -185,770;    0,000;    0,000
 850,25;  -93,690;    0,000;    0,000
 850,30; -155,230;    0,000;    0,000
 850,35;  -23,690;    0,000;    0,000
 850,40; -147,720;    0,000;    0,000
 850,45; -133,150;    0,000;    0,000
 850,50; -136,270;    0,000;    0,000
 850,55;  -54,620;    0,000;    0,000
 850,60;  -99,610;    0,000;    0,000
 850,65; -176,580;    0,000;    0,000
 850,70; -201,360;    0,000;    0,000
 850,75; -126,630;    0,000;    0,000
 850,80; -173,420;    0,000;    0,000
 850,85; -116,200;    0,000;    0,000
 850,90;  -71,730;    0,000;    0,000
 850,95;  -26,840;    0,000;    0,000
 851,00;  -91,770;    0,000;    0,000
 851,05; -128,330;    0,000;    0,000
 851,11; -102,750;    0,000;    0,000
 851,16; -112,120;    0,000;    0,000
 851,21; -135,660;    0,000;    0,000
 851,26;  -47,970;    0,000;    0,000
 851,31;  -85,570;    0,000;    0,000
 851,36;   69,120;    0,000;    0,000
 851,41;   33,850;    0,000;    0,000
 851,46;  -87,750;    0,000;    0,000
 851,51; -126,960;    0,000;    0,000
 851,56; -101,870;    0,000;    0,000
 851,61; -150,050;    0,000;    0,000
 851,66;  -72,150;    0,000;    0,000
 851,71; -118,010;    0,000;    0,000
 851,76; -160,740;    0,000;    0,000
 851,81; -171,350;    0,000;    0,000
 851,86;  -69,570;    0,000;    0,000
 851,91; -174,590;    0,000;    0,000
 851,96;  -36,050;    0,000;    0,000
 852,01; -164,830;    0,000;    0,000
 852,06;  -49,690;    0,000;    0,000
 852,11; -128,540;    0,000;    0,000
 852,16;  -56,430;    0,000;    0,000
 852,21;  -58,860;    0,000;    0,000
 852,26;  -80,220;    0,000;    0,000
 852,32; -194,640;    0,000;    0,000
 852,37;  -52,830;    0,000;    0,000
 852,42; -130,520;    0,000;    0,000
 852,47;  -91,590;    0,000;    0,000
 852,52;   -2,170;    0,000;    0,000
 852,57; -135,430;    0,000;    0,000
 852,62;   84,250;    0,000;    0,000
 852,67;  -32,510;    0,000;    0,000
 852,72; -127,210;    0,000;    0,000
 852,77;  -92,000;    0,000;    0,000
 852,82;  -51,970;    0,000;    0,000
 852,87;  -81,840;    0,000;    0,000
 852,92; -207,270;    0,000;    0,000
 852,97;  -66,830;    0,000;    0,000
 853,02;  -44,520;    0,000;    0,000
 853,07; -185,390;    0,000;    0,000
 853,12; -163,310;    0,000;    0,000
 853,17; -161,130;    0,000;    0,000
 853,22; -206,500;    0,000;    0,000
 853,27;  -44,770;    0,000;    0,000
 853,32;  -85,560;    0,000;    0,000
 853,37;  -85,870;    0,000;    0,000
 853,42; -115,520;    0,000;    0,000
 853,47;  -32,440;    0,000;    0,000
 853,52; -194,110;    0,000;    0,000
 853,57; -165,340;    0,000;    0,000
 853,62; -212,830;    0,000;    0,000
 853,67; -175,540;    0,000;    0,000
 853,72;  -76,250;    0,000;    0,000
 853,77;  -96,310;    0,000;    0,000
 853,82; -217,350;    0,000;    0,000
 853,87; -124,560;    0,000;    0,000
 853,92;  -60,870;    0,000;    0,000
 853,97;  -67,060;    0,000;    0,000
 854,02;  -58,160;    0,000;    0,000
 854,07; -108,590;    0,000;    0,000
 854,12; -140,110;    0,000;    0,000
 854,17; -146,870;    0,000;    0,000
 854,22; -123,650;    0,000;    0,000
 854,27;  -52,160;    0,000;    0,000
 854,32;  -98,100;    0,000;    0,000
 854,37;  -15,810;    0,000;    0,000
 854,42; -111,380;    0,000;    0,000
 854,47; -104,960;    0,000;    0,000
 854,52; -162,180;    0,000;    0,000
 854,57;  -27,550;    0,000;    0,000
 854,62; -130,330;    0,000;    0,000
 854,67;  -50,390;    0,000;    0,000
 854,72; -187,820;    0,000;    0,000
 854,77;  -58,560;    0,000;    0,000
 854,82; -151,960;    0,000;    0,000
 854,87; -118,270;    0,000;    0,000
 854,92; -196,660;    0,000;    0,000
 854,97;  -51,520;    0,000;    0,000
 855,02; -149,930;    0,000;    0,000
 855,07; -102,220;    0,000;    0,000
 855,12; -187,590;    0,000;    0,000
 855,17; -150,210;    0,000;    0,000
 855,22; -219,720;    0,000;    0,000
 855,27;  -69,020;    0,000;    0,000
 855,32; -146,330;    0,000;    0,000
 855,37;  -34,020;    0,000;    0,000
 855,42; -193,420;    0,000;    0,000
 855,47;   -0,730;    0,000;    0,000
 855,52; -106,650;    0,000;    0,000
 855,57; -118,090;    0,000;    0,000
 855,62; -142,600;    0,000;    0,000
 855,67; -161,920;    0,000;    0,000
 855,72; -203,600;    0,000;    0,000
 855,77; -123,700;    0,000;    0,000
 855,82; -153,640;    0,000;    0,000
 855,87; -128,280;    0,000;    0,000
 855,92; -200,000;    0,000;    0,000
 855,97; -152,460;    0,000;    0,000
 856,02; -171,770;    0,000;    0,000
 856,07;  -84,830;    0,000;    0,000
 856,12; -151,150;    0,000;    0,000
 856,17; -116,870;    0,000;    0,000
 856,22; -110,700;    0,000;    0,000
 856,27;  -83,170;    0,000;    0,000
 856,32;  -95,670;    0,000;    0,000
 856,37; -105,060;    0,000;    0,000
 856,41; -218,530;    0,000;    0,000
 856,46;  -90,570;    0,000;    0,000
 856,51; -130,290;    0,000;    0,000
 856,56; -134,570;    0,000;    0,000
 856,61; -139,820;    0,000;    0,000
 856,66; -142,720;    0,000;    0,000
 856,71; -118,680;    0,000;    0,000
 856,76;  -92,920;    0,000;    0,000
 856,81;  -60,480;    0,000;    0,000
 856,86; -143,850;    0,000;    0,000
 856,91; -121,470;    0,000;    0,000
 856,96; -114,670;    0,000;    0,000
 857,01;  -91,910;    0,000;    0,000
 857,06; -119,090;    0,000;    0,000
 857,11; -191,280;    0,000;    0,000
 857,16;  -89,840;    0,000;    0,000
 857,21; -182,080;    0,000;    0,000
 857,26; -131,070;    0,000;    0,000
 857,31; -169,380;    0,000;    0,000
 857,36; -131,070;    0,000;    0,000
 857,41; -120,230;    0,000;    0,000
 857,46; -151,250;    0,000;    0,000
 857,51; -138,190;    0,000;    0,000
 857,56; -106,270;    0,000;    0,000
 857,60; -134,560;    0,000;    0,000
 857,65; -118,570;    0,000;    0,000
 857,70; -200,720;    0,000;    0,000
 857,75; -133,460;    0,000;    0,000
 857,80; -168,340;    0,000;    0,000
 857,85;  -45,490;    0,000;    0,000
 857,90; -246,450;    0,000;    0,000
 857,95;  -28,840;    0,000;    0,000
 858,00; -163,840;    0,000;    0,000
 858,05; -119,700;    0,000;    0,000
 858,10;  -82,190;    0,000;    0,000
 858,15;  -33,470;    0,000;    0,000
 858,20; -131,620;    0,000;    0,000
 858,25;  -53,600;    0,000;    0,000
 858,30; -122,960;    0,000;    0,000
 858,35;  -58,680;    0,000;    0,000
 858,40; -179,990;    0,000;    0,000
 858,45;  -86,660;    0,000;    0,000
 858,49; -130,810;    0,000;    0,000
 858,54; -127,900;    0,000;    0,000
 858,59; -204,930;    0,000;    0,000
 858,64; -146,950;    0,000;    0,000
 858,69; -210,180;    0,000;    0,000
 858,74; -126,330;    0,000;    0,000
 858,79; -104,500;    0,000;    0,000
 858,84; -188,670;    0,000;    0,000
 858,89; -209,000;    0,000;    0,000
 858,94;  -87,340;    0,000;    0,000
 858,99; -141,800;    0,000;    0,000
 859,04; -139,830;    0,000;    0,000
 859,09;  -23,060;    0,000;    0,000
 859,14; -160,080;    0,000;    0,000
 859,18;  -86,400;    0,000;    0,000
 859,23;  -47,100;    0,000;    0,000
 859,28; -134,970;    0,000;    0,000
 859,33; -131,520;    0,000;    0,000
 859,38; -180,440;    0,000;    0,000
 859,43;   -4,050;    0,000;    0,000
 859,48; -168,680;    0,000;    0,000
 859,53; -127,950;    0,000;    0,000
 859,58; -123,160;    0,000;    0,000
 859,63; -102,320;    0,000;    0,000
 859,68; -121,200;    0,000;    0,000
 859,73; -163,930;    0,000;    0,000
 859,78; -117,810;    0,000;    0,000
 859,82; -132,510;    0,000;    0,000
 859,87;  -96,100;    0,000;    0,000
 859,92;  -90,860;    0,000;    0,000
 859,97;  -84,940;    0,000;    0,000
 860,02; -114,010;    0,000;    0,000
 860,07;  -87,720;    0,000;    0,000
 860,12; -103,900;    0,000;    0,000
 860,17; -110,570;    0,000;    0,000
 860,22;   33,870;    0,000;    0,000
 860,27; -196,860;    0,000;    0,000
 860,32;  -39,270;    0,000;    0,000
 860,36; -152,920;    0,000;    0,000
 860,41; -104,790;    0,000;    0,000
 860,46; -168,310;    0,000;    0,000
 860,51; -127,890;    0,000;    0,000
 860,56;    5,190;    0,000;    0,000
 860,61;  -65,300;    0,000;    0,000
 860,66; -115,680;    0,000;    0,000
 860,71;  -45,090;    0,000;    0,000
 860,76; -143,200;    0,000;    0,000
 860,81; -148,240;    0,000;    0,000
 860,85; -132,540;    0,000;    0,000
 860,90; -157,540;    0,000;    0,000
 860,95;  -53,060;    0,000;    0,000
 861,00; -145,740;    0,000;    0,000
 861,05; -189,920;    0,000;    0,000
 861,10; -114,920;    0,000;    0,000
 861,15; -238,930;    0,000;    0,000
 861,20;  -53,710;    0,000;    0,000
 861,25; -128,770;    0,000;    0,000
 861,30;   46,780;    0,000;    0,000
 861,34; -122,690;    0,000;    0,000
 861,39;   26,310;    0,000;    0,000
 861,44; -164,700;    0,000;    0,000
 861,49;  -82,240;    0,000;    0,000
 861,54; -101,550;    0,000;    0,000
 861,59; -158,300;    0,000;    0,000
 861,64;  -80,090;    0,000;    0,000
 861,69;  -77,540;    0,000;    0,000
 861,73; -118,800;    0,000;    0,000
 861,78; -179,390;    0,000;    0,000
 861,83;  -96,010;    0,000;    0,000
 861,88; -139,090;    0,000;    0,000
 861,93; -198,640;    0,000;    0,000
 861,98;  -34,410;    0,000;    0,000
 862,03; -110,490;    0,000;    0,000
 862,08; -130,230;    0,000;    0,000
 862,13; -174,190;    0,000;    0,000
 862,17;  -38,810;    0,000;    0,000
 862,22; -185,880;    0,000;    0,000
 862,27;  -69,440;    0,000;    0,000
 862,32;  -71,700;    0,000;    0,000
 862,37; -193,360;    0,000;    0,000
 862,42; -174,870;    0,000;    0,000
 862,47;  -92,790;    0,000;    0,000
 862,52; -141,350;    0,000;    0,000
 862,56; -138,300;    0,000;    0,000
 862,61; -132,570;    0,000;    0,000
 862,66;  -37,830;    0,000;    0,000
 862,71; -155,280;    0,000;    0,000
 862,76; -134,480;    0,000;    0,000
 862,81; -223,750;    0,000;    0,000
 862,86; -150,150;    0,000;    0,000
 862,90; -117,180;    0,000;    0,000
 862,95;  -57,240;    0,000;    0,000
 863,00;  -57,060;    0,000;    0,000
 863,05; -121,330;    0,000;    0,000
 863,10;  -72,130;    0,000;    0,000
 863,15;  -93,040;    0,000;    0,000
 863,20; -199,930;    0,000;    0,000
 863,25;  -73,710;    0,000;    0,000
 863,29; -146,100;    0,000;    0,000
 863,34;  -66,380;    0,000;    0,000
 863,39;  -69,060;    0,000;    0,000
 863,44; -125,350;    0,000;    0,000
 863,49; -155,360;    0,000;    0,000
 863,54; -176,100;    0,000;    0,000
 863,59; -167,320;    0,000;    0,000
 863,63;  -23,520;    0,000;    0,000
 863,68; -110,570;    0,000;    0,000
 863,73;  -55,170;    0,000;    0,000
 863,78; -182,730;    0,000;    0,000
 863,83; -122,280;    0,000;    0,000
 863,88; -202,510;    0,000;    0,000
 863,92; -122,480;    0,000;    0,000
 863,97;  -16,950;    0,000;    0,000
 864,02; -157,380;    0,000;    0,000
 864,07;  -29,440;    0,000;    0,000
 864,12; -128,920;    0,000;    0,000
 864,17; -169,520;    0,000;    0,000
 864,22;  -35,670;    0,000;    0,000
 864,26; -107,450;    0,000;    0,000
 864,31; -162,090;    0,000;    0,000
 864,36; -155,030;    0,000;    0,000
 864,41;  -67,980;    0,000;    0,000
 864,46; -126,260;    0,000;    0,000
 864,51;  -76,680;    0,000;    0,000
 864,55; -224,350;    0,000;    0,000
 864,60;  -62,410;    0,000;    0,000
 864,65; -170,040;    0,000;    0,000
 864,70;  -86,530;    0,000;    0,000
 864,75; -116,400;    0,000;    0,000
 864,80;  -68,720;    0,000;    0,000
 864,84;  -19,420;    0,000;    0,000
 864,89;  -79,780;    0,000;    0,000
 864,94;  -97,170;    0,000;    0,000
 864,99; -119,160;    0,000;    0,000
 865,04; -167,600;    0,000;    0,000
 865,09;  -98,000;    0,000;    0,000
 865,13;  -61,470;    0,000;    0,000
 865,18;  -74,520;    0,000;    0,000
 865,23; -127,330;    0,000;    0,000
 865,28; -165,020;    0,000;    0,000
 865,33; -148,300;    0,000;    0,000
 865,38;  -88,500;    0,000;    0,000
 865,42;  -77,490;    0,000;    0,000
 865,47; -178,100;    0,000;    0,000
 865,52; -112,520;    0,000;    0,000
 865,57;  -99,040;    0,000;    0,000
 865,62; -132,180;    0,000;    0,000
 865,67;  -23,320;    0,000;    0,000
 865,71; -163,050;    0,000;    0,000
 865,76;   20,550;    0,000;    0,000
 865,81; -185,240;    0,000;    0,000
 865,86; -130,190;    0,000;    0,000
 865,91;    0,620;    0,000;    0,000
 865,95; -126,510;    0,000;    0,000
 866,00; -152,400;    0,000;    0,000
 866,05;  -95,470;    0,000;    0,000
 866,10; -190,750;    0,000;    0,000
 866,15; -108,580;    0,000;    0,000
 866,20; -166,340;    0,000;    0,000
 866,24;  -92,790;    0,000;    0,000
 866,29; -183,600;    0,000;    0,000
 866,34;  -90,440;    0,000;    0,000
 866,39; -139,030;    0,000;    0,000
 866,44;  -78,880;    0,000;    0,000
 866,48; -127,940;    0,000;    0,000
 866,53; -132,990;    0,000;    0,000
 866,58; -134,110;    0,000;    0,000
 866,63; -145,780;    0,000;    0,000
 866,68;  -83,310;    0,000;    0,000
 866,72; -112,210;    0,000;    0,000
 866,77;  -66,600;    0,000;    0,000
 866,82;  -67,300;    0,000;    0,000
 866,87; -133,930;    0,000;    0,000
 866,92;  -53,690;    0,000;    0,000
 866,96; -149,280;    0,000;    0,000
 867,01;  -53,580;    0,000;    0,000
 867,06; -148,760;    0,000;    0,000
 867,11; -107,180;    0,000;    0,000
 867,16; -122,570;    0,000;    0,000
 867,20;  -78,990;    0,000;    0,000
 867,25; -152,300;    0,000;    0,000
 867,30; -144,250;    0,000;    0,000
 867,35; -123,830;    0,000;    0,000
 867,40;  -81,070;    0,000;    0,000
 867,44; -178,210;    0,000;    0,000
 867,49; -128,750;    0,000;    0,000
 867,54;   -9,810;    0,000;    0,000
 867,59;  -72,190;    0,000;    0,000
 867,64; -114,860;    0,000;    0,000
 867,68;  -32,150;    0,000;    0,000
 867,73; -156,370;    0,000;    0,000
 867,78;  -98,550;    0,000;    0,000
 867,83; -119,170;    0,000;    0,000
 867,87;  -80,980;    0,000;    0,000
 867,92; -149,290;    0,000;    0,000
 867,97;    3,980;    0,000;    0,000
 868,02; -134,430;    0,000;    0,000
 868,07; -179,760;    0,000;    0,000
 868,11; -221,460;    0,000;    0,000
 868,16; -107,150;    0,000;    0,000
 868,21; -201,860;    0,000;    0,000
 868,26; -124,100;    0,000;    0,000
 868,30; -191,590;    0,000;    0,000
 868,35;  -20,390;    0,000;    0,000
 868,40; -168,430;    0,000;    0,000
 868,45;  -78,920;    0,000;    0,000
 868,50; -169,730;    0,000;    0,000
 868,54;  -98,670;    0,000;    0,000
 868,59; -140,790;    0,000;    0,000
 868,64; -151,050;    0,000;    0,000
 868,69; -112,160;    0,000;    0,000
 868,73;  -84,950;    0,000;    0,000
 868,78; -115,710;    0,000;    0,000
 868,83;  -75,040;    0,000;    0,000
 868,88;  -76,130;    0,000;    0,000
 868,93; -139,940;    0,000;    0,000
 868,97; -230,510;    0,000;    0,000
 869,02;  -99,540;    0,000;    0,000
 869,07; -207,920;    0,000;    0,000
 869,12; -150,000;    0,000;    0,000
 869,16; -160,490;    0,000;    0,000
 869,21; -144,550;    0,000;    0,000
 869,26;  -24,950;    0,000;    0,000
 869,31; -196,630;    0,000;    0,000
 869,35; -205,450;    0,000;    0,000
 869,40; -117,420;    0,000;    0,000
 869,45;  -83,500;    0,000;    0,000
 869,50;  -86,500;    0,000;    0,000
 869,54; -165,430;    0,000;    0,000
 869,59;  -52,510;    0,000;    0,000
 869,64; -226,580;    0,000;    0,000
 869,69; -186,990;    0,000;    0,000
 869,73; -164,400;    0,000;    0,000
 869,78; -127,790;    0,000;    0,000
 869,83; -161,470;    0,000;    0,000
 869,88;  -74,070;    0,000;    0,000
 869,92;  -56,390;    0,000;    0,000
 869,97; -112,980;    0,000;    0,000
 870,02; -182,320;    0,000;    0,000
 870,07; -148,980;    0,000;    0,000
 870,11;   13,610;    0,000;    0,000
 870,16; -114,080;    0,000;    0,000
 870,21; -166,040;    0,000;    0,000
 870,26; -116,360;    0,000;    0,000
 870,30; -180,180;    0,000;    0,000
 870,35;  -42,530;    0,000;    0,000
 870,40;  -82,670;    0,000;    0,000
 870,45;  -86,480;    0,000;    0,000
 870,49; -109,200;    0,000;    0,000
 870,54;  -91,900;    0,000;    0,000
 870,59; -139,640;    0,000;    0,000
 870,64;  -45,240;    0,000;    0,000
 870,68; -128,710;    0,000;    0,000
 870,73;  -81,130;    0,000;    0,000
 870,78; -143,480;    0,000;    0,000
 870,83; -191,880;    0,000;    0,000
 870,87; -190,230;    0,000;    0,000
 870,92; -107,080;    0,000;    0,000
 870,97; -102,850;    0,000;    0,000
 871,02;    1,540;    0,000;    0,000
 871,06;  -81,500;    0,000;    0,000
 871,11;  -89,500;    0,000;    0,000
 871,16; -103,280;    0,000;    0,000
 871,20; -178,250;    0,000;    0,000
 871,25; -180,830;    0,000;    0,000
 871,30; -161,700;    0,000;    0,000
 871,35;  -66,030;    0,000;    0,000
 871,39;  -94,480;    0,000;    0,000
 871,44; -174,080;    0,000;    0,000
 871,49;    2,030;    0,000;    0,000
 871,54; -162,140;    0,000;    0,000
 871,58; -100,420;    0,000;    0,000
 871,63;  -15,030;    0,000;    0,000
 871,68;  -74,690;    0,000;    0,000
 871,72; -141,560;    0,000;    0,000
 871,77; -144,600;    0,000;    0,000
 871,82;  -50,690;    0,000;    0,000
 871,87;  -99,280;    0,000;    0,000
 871,91;  -92,770;    0,000;    0,000
 871,96;  -39,010;    0,000;    0,000
 872,01; -129,360;    0,000;    0,000
 872,05; -194,140;    0,000;    0,000
 872,10; -120,030;    0,000;    0,000
 872,15; -212,100;    0,000;    0,000
 872,20; -205,670;    0,000;    0,000
 872,24; -100,120;    0,000;    0,000
 872,29; -230,200;    0,000;    0,000
 872,34; -125,710;    0,000;    0,000
 872,38;  -94,710;    0,000;    0,000
 872,43; -184,560;    0,000;    0,000
 872,48; -190,250;    0,000;    0,000
 872,53;  -39,610;    0,000;    0,000
 872,57; -183,550;    0,000;    0,000
 872,62;  -74,530;    0,000;    0,000
 872,67; -108,550;    0,000;    0,000
 872,71; -120,360;    0,000;    0,000
 872,76; -122,810;    0,000;    0,000
 872,81;  -77,300;    0,000;    0,000
 872,85; -113,070;    0,000;    0,000
 872,90; -161,170;    0,000;    0,000
 872,95; -120,460;    0,000;    0,000
 873,00;  -82,710;    0,000;    0,000
 873,04; -165,230;    0,000;    0,000
 873,09; -123,960;    0,000;    0,000
 873,14; -162,410;    0,000;    0,000
 873,18;  -59,170;    0,000;    0,000
 873,23; -197,980;    0,000;    0,000
 873,28; -109,280;    0,000;    0,000
 873,32; -119,730;    0,000;    0,000
 873,37; -176,490;    0,000;    0,000
 873,42; -146,860;    0,000;    0,000
 873,47; -140,550;    0,000;    0,000
 873,51; -176,550;    0,000;    0,000
 873,56;  -66,970;    0,000;    0,000
 873,61; -126,020;    0,000;    0,000
 873,65; -145,650;    0,000;    0,000
 873,70; -176,190;    0,000;    0,000
 873,75;  -30,460;    0,000;    0,000
 873,79;  -57,070;    0,000;    0,000
 873,84;  -26,360;    0,000;    0,000
 873,89;  -82,920;    0,000;    0,000
 873,93;  -27,930;    0,000;    0,000
 873,98; -170,670;    0,000;    0,000
 874,03;  -93,170;    0,000;    0,000
 874,07; -144,970;    0,000;    0,000
 874,12;  -27,910;    0,000;    0,000
 874,17; -101,270;    0,000;    0,000
 874,21;  -74,510;    0,000;    0,000
 874,26; -162,390;    0,000;    0,000
 874,31;  -53,980;    0,000;    0,000
 874,35; -100,110;    0,000;    0,000
 874,40;  -57,780;    0,000;    0,000
 874,45; -107,390;    0,000;    0,000
 874,50;  -40,730;    0,000;    0,000
 874,54;  -23,210;    0,000;    0,000
 874,59;  -61,200;    0,000;    0,000
 874,64;  -93,880;    0,000;    0,000
 874,68;    5,750;    0,000;    0,000
 874,73;  -54,610;    0,000;    0,000
 874,78;  -42,470;    0,000;    0,000
 874,82; -101,950;    0,000;    0,000
 874,87;  -49,400;    0,000;    0,000
 874,92;  -99,190;    0,000;    0,000
 874,96; -113,130;    0,000;    0,000
 875,01;  -90,480;    0,000;    0,000
 875,06; -135,460;    0,000;    0,000
 875,10; -197,550;    0,000;    0,000
 875,15;  -89,110;    0,000;    0,000
 875,20; -157,250;    0,000;    0,000
 875,24; -129,950;    0,000;    0,000
 875,29; -208,510;    0,000;    0,000
 875,34; -128,580;    0,000;    0,000
 875,38; -123,830;    0,000;    0,000
 875,43;  -49,280;    0,000;    0,000
 875,47;  -80,180;    0,000;    0,000
 875,52;  -73,490;    0,000;    0,000
 875,57; -141,900;    0,000;    0,000
 875,61; -105,880;    0,000;    0,000
 875,66; -122,140;    0,000;    0,000
 875,71; -112,570;    0,000;    0,000
 875,75; -199,340;    0,000;    0,000
 875,80;  -98,180;    0,000;    0,000
 875,85; -122,430;    0,000;    0,000
 875,89; -141,960;    0,000;    0,000
 875,94; -155,110;    0,000;    0,000
 875,99; -169,550;    0,000;    0,000
 876,03; -189,590;    0,000;    0,000
 876,08;  -75,900;    0,000;    0,000
 876,13; -166,330;    0,000;    0,000
 876,17; -117,580;    0,000;    0,000
 876,22; -118,880;    0,000;    0,000
 876,27; -152,810;    0,000;    0,000
 876,31; -167,230;    0,000;    0,000
 876,36;  -24,720;    0,000;    0,000
 876,40;  -99,810;    0,000;    0,000
 876,45; -146,100;    0,000;    0,000
 876,50; -162,750;    0,000;    0,000
 876,54;   39,050;    0,000;    0,000
 876,59; -158,810;    0,000;    0,000
 876,64; -141,670;    0,000;    0,000
 876,68; -109,780;    0,000;    0,000
 876,73;   21,980;    0,000;    0,000
 876,78; -111,950;    0,000;    0,000
 876,82;  -30,490;    0,000;    0,000
 876,87;  -92,390;    0,000;    0,000
 876,91; -145,690;    0,000;    0,000
 876,96; -194,240;    0,000;    0,000
 877,01;  -96,930;    0,000;    0,000
 877,05; -187,600;    0,000;    0,000
 877,10;  -95,840;    0,000;    0,000
 877,15; -116,470;    0,000;    0,000
 877,19; -212,980;    0,000;    0,000
 877,24; -118,290;    0,000;    0,000
 877,28;   32,670;    0,000;    0,000
 877,33; -134,160;    0,000;    0,000
 877,38; -182,390;    0,000;    0,000
 877,42; -156,450;    0,000;    0,000
 877,47;  -47,580;    0,000;    0,000
 877,52;  -55,460;    0,000;    0,000
 877,56;  -74,410;    0,000;    0,000
 877,61; -119,160;    0,000;    0,000
 877,65;   -9,570;    0,000;    0,000
 877,70; -136,620;    0,000;    0,000
 877,75;  -66,940;    0,000;    0,000
 877,79; -101,030;    0,000;    0,000
 877,84;  -72,420;    0,000;    0,000
 877,89; -114,560;    0,000;    0,000
 877,93;  -84,190;    0,000;    0,000
 877,98; -231,560;    0,000;    0,000
 878,02; -116,390;    0,000;    0,000
 878,07;  -85,640;    0,000;    0,000
 878,12; -146,890;    0,000;    0,000
 878,16; -195,230;    0,000;    0,000
 878,21; -131,790;    0,000;    0,000
 878,25; -160,420;    0,000;    0,000
 878,30; -156,410;    0,000;    0,000
 878,35; -158,290;    0,000;    0,000
 878,39; -101,390;    0,000;    0,000
 878,44;  -42,290;    0,000;    0,000
 878,48;  -79,690;    0,000;    0,000
 878,53;  -61,100;    0,000;    0,000
 878,58;  204,270;    0,000;    0,000
 878,62;  286,830;    0,000;    0,000
 878,67;  268,020;    0,000;    0,000
 878,71;    6,620;    0,000;    0,000
 878,76;  -31,850;    0,000;    0,000
 878,81;  -95,750;    0,000;    0,000
 878,85; -117,890;    0,000;    0,000
 878,90; -152,330;    0,000;    0,000
 878,94; -132,010;    0,000;    0,000
 878,99; -144,850;    0,000;    0,000
 879,04; -121,400;    0,000;    0,000
 879,08; -223,320;    0,000;    0,000
 879,13;  -65,700;    0,000;    0,000
 879,17; -106,410;    0,000;    0,000
 879,22;  -66,560;    0,000;    0,000
 879,27; -178,840;    0,000;    0,000
 879,31; -183,730;    0,000;    0,000
 879,36; -181,870;    0,000;    0,000
 879,40;  -66,640;    0,000;    0,000
 879,45; -191,630;    0,000;    0,000
 879,50;  -96,950;    0,000;    0,000
 879,54; -155,640;    0,000;    0,000
 879,59; -156,170;    0,000;    0,000
 879,63; -129,150;    0,000;    0,000
 879,68;  -80,030;    0,000;    0,000
 879,72; -212,740;    0,000;    0,000
 879,77;  -28,910;    0,000;    0,000
 879,82;   -7,600;    0,000;    0,000
 879,86; -113,480;    0,000;    0,000
 879,91; -140,710;    0,000;    0,000
 879,95;  -77,810;    0,000;    0,000
 880,00; -184,130;    0,000;    0,000
 880,05;  -62,000;    0,000;    0,000
 880,09; -223,540;    0,000;    0,000
 880,14;   18,600;    0,000;    0,000
 880,18; -113,540;    0,000;    0,000
 880,23;  -87,150;    0,000;    0,000
 880,27;  -53,410;    0,000;    0,000
 880,32; -113,830;    0,000;    0,000
 880,37; -242,440;    0,000;    0,000
 880,41;  -79,870;    0,000;    0,000
 880,46;  -59,630;    0,000;    0,000
 880,50;  -64,330;    0,000;    0,000
 880,55; -221,290;    0,000;    0,000
 880,59;    6,190;    0,000;    0,000
 880,64; -137,750;    0,000;    0,000
 880,69; -145,660;    0,000;    0,000
 880,73; -220,920;    0,000;    0,000
 880,78;   37,990;    0,000;    0,000
 880,82; -174,000;    0,000;    0,000
 880,87; -178,590;    0,000;    0,000
 880,91; -178,450;    0,000;    0,000
 880,96;  -88,400;    0,000;    0,000
 881,00;  -77,940;    0,000;    0,000
 881,05; -162,740;    0,000;    0,000
 881,10; -124,120;    0,000;    0,000
 881,14; -100,140;    0,000;    0,000
 881,19; -161,410;    0,000;    0,000
 881,23;  -94,920;    0,000;    0,000
 881,28; -146,900;    0,000;    0,000
 881,32;  -65,600;    0,000;    0,000
 881,37; -101,380;    0,000;    0,000
 881,41; -101,610;    0,000;    0,000
 881,46; -161,690;    0,000;    0,000
 881,51; -100,800;    0,000;    0,000
 881,55; -172,370;    0,000;    0,000
 881,60; -112,710;    0,000;    0,000
 881,64;  -99,570;    0,000;    0,000
 881,69; -141,520;    0,000;    0,000
 881,73; -177,580;    0,000;    0,000
 881,78;  -38,370;    0,000;    0,000
 881,82; -129,290;    0,000;    0,000
 881,87;  -65,600;    0,000;    0,000
 881,92; -151,790;    0,000;    0,000
 881,96;  -80,910;    0,000;    0,000
 882,01; -131,400;    0,000;    0,000
 882,05;  -74,420;    0,000;    0,000
 882,10; -163,010;    0,000;    0,000
 882,14;  -66,810;    0,000;    0,000
 882,19; -184,860;    0,000;    0,000
 882,23;  -87,630;    0,000;    0,000
 882,28; -224,690;    0,000;    0,000
 882,32; -122,140;    0,000;    0,000
 882,37;  -82,570;    0,000;    0,000
 882,41; -126,100;    0,000;    0,000
 882,46; -170,100;    0,000;    0,000
 882,51;  -87,770;    0,000;    0,000
 882,55; -173,810;    0,000;    0,000
 882,60;  -34,790;    0,000;    0,000
 882,64;  -19,280;    0,000;    0,000
 882,69;  -47,300;    0,000;    0,000
 882,73;  -54,320;    0,000;    0,000
 882,78;   36,890;    0,000;    0,000
 882,82;  139,240;    0,000;    0,000
 882,87;  298,070;    0,000;    0,000
 882,91;  536,570;    0,000;    0,000
 882,96; 1306,790;    0,000;    0,000
 883,00; 1778,930;    0,000;    0,000
 883,05; 1124,540;    0,000;    0,000
 883,09;  374,570;    0,000;    0,000
 883,14;   47,880;    0,000;    0,000
 883,18; -116,910;    0,000;    0,000
 883,23;  -37,450;    0,000;    0,000
 883,27;  -80,350;    0,000;    0,000
 883,32;  -48,670;    0,000;    0,000
 883,36;  -29,290;    0,000;    0,000
 883,41;  -81,780;    0,000;    0,000
 883,46; -145,990;    0,000;    0,000
 883,50;  -93,170;    0,000;    0,000
 883,55; -113,020;    0,000;    0,000
 883,59;  -81,560;    0,000;    0,000
 883,64; -148,760;    0,000;    0,000
 883,68; -104,700;    0,000;    0,000
 883,73; -242,520;    0,000;    0,000
 883,77;  -75,700;    0,000;    0,000
 883,82; -166,890;    0,000;    0,000
 883,86;  -56,160;    0,000;    0,000
 883,91; -128,370;    0,000;    0,000
 883,95;  -52,300;    0,000;    0,000
 884,00; -134,750;    0,000;    0,000
 884,04;  -45,160;    0,000;    0,000
 884,09; -187,370;    0,000;    0,000
 884,13; -161,760;    0,000;    0,000
 884,18; -203,280;    0,000;    0,000
 884,22;  -17,430;    0,000;    0,000
 884,27; -176,240;    0,000;    0,000
 884,31; -134,470;    0,000;    0,000
 884,36; -186,730;    0,000;    0,000
 884,40;  -90,360;    0,000;    0,000
 884,45; -165,050;    0,000;    0,000
 884,49;  -84,190;    0,000;    0,000
 884,54; -201,230;    0,000;    0,000
 884,58; -113,680;    0,000;    0,000
 884,63; -120,340;    0,000;    0,000
 884,67; -158,570;    0,000;    0,000
 884,72; -145,050;    0,000;    0,000
 884,76; -111,070;    0,000;    0,000
 884,81; -225,980;    0,000;    0,000
 884,85; -101,550;    0,000;    0,000
 884,90; -141,640;    0,000;    0,000
 884,94; -147,020;    0,000;    0,000
 884,99; -178,940;    0,000;    0,000
 885,03;  -81,560;    0,000;    0,000
 885,08;  -23,280;    0,000;    0,000
 885,12; -132,500;    0,000;    0,000
 885,17; -159,330;    0,000;    0,000
 885,21; -145,250;    0,000;    0,000
 885,26; -109,990;    0,000;    0,000
 885,30; -100,600;    0,000;    0,000
 885,34; -138,110;    0,000;    0,000
 885,39;  -40,690;    0,000;    0,000
 885,43; -169,830;    0,000;    0,000
 885,48;  -90,510;    0,000;    0,000
 885,52; -142,020;    0,000;    0,000
 885,57;  -53,840;    0,000;    0,000
 885,61;  -71,080;    0,000;    0,000
 885,66; -131,090;    0,000;    0,000
 885,70; -168,300;    0,000;    0,000
 885,75;  -64,460;    0,000;    0,000
 885,79; -154,060;    0,000;    0,000
 885,84; -137,170;    0,000;    0,000
 885,88;  -95,940;    0,000;    0,000
 885,93; -159,930;    0,000;    0,000
 885,97; -147,080;    0,000;    0,000
 886,02;  -39,050;    0,000;    0,000
 886,06; -129,350;    0,000;    0,000
 886,11;   -5,230;    0,000;    0,000
 886,15; -142,660;    0,000;    0,000
 886,19; -101,100;    0,000;    0,000
 886,24; -213,440;    0,000;    0,000
 886,28;  -77,480;    0,000;    0,000
 886,33; -209,330;    0,000;    0,000
 886,37; -187,310;    0,000;    0,000
 886,42; -148,800;    0,000;    0,000
 886,46; -111,170;    0,000;    0,000
 886,51;  -52,900;    0,000;    0,000
 886,55;  -89,840;    0,000;    0,000
 886,60; -175,760;    0,000;    0,000
 886,64; -161,500;    0,000;    0,000
 886,69; -133,690;    0,000;    0,000
 886,73;  -43,730;    0,000;    0,000
 886,77; -163,280;    0,000;    0,000
 886,82; -140,200;    0,000;    0,000
 886,86;  -85,130;    0,000;    0,000
 886,91;  517,840;    0,000;    0,000
 886,95; -141,060;    0,000;    0,000
 887,00;  -59,800;    0,000;    0,000
 887,04; -121,350;    0,000;    0,000
 887,09; -101,580;    0,000;    0,000
 887,13; -150,020;    0,000;    0,000
 887,18;   13,840;    0,000;    0,000
 887,22; -172,340;    0,000;    0,000
 887,26; -108,870;    0,000;    0,000
 887,31;  -80,320;    0,000;    0,000
 887,35; -101,900;    0,000;    0,000
 887,40; -106,530;    0,000;    0,000
 887,44;  -78,950;    0,000;    0,000
 887,49; -120,020;    0,000;    0,000
 887,53;  -31,570;    0,000;    0,000
 887,58; -153,780;    0,000;    0,000
 887,62;  -55,050;    0,000;    0,000
 887,66;  -74,080;    0,000;    0,000
 887,71;  -22,940;    0,000;    0,000
 887,75; -125,370;    0,000;    0,000
 887,80; -144,780;    0,000;    0,000
 887,84; -145,730;    0,000;    0,000
 887,89; -133,430;    0,000;    0,000
 887,93; -223,170;    0,000;    0,000
 887,97;  -83,820;    0,000;    0,000
 888,02; -149,120;    0,000;    0,000
 888,06;  -75,950;    0,000;    0,000
 888,11; -140,970;    0,000;    0,000
 888,15; -103,500;    0,000;    0,000
 888,20; -116,310;    0,000;    0,000
 888,24;  -84,900;    0,000;    0,000
 888,29; -133,410;    0,000;    0,000
 888,33; -140,050;    0,000;    0,000
 888,37; -205,590;    0,000;    0,000
 888,42;   18,280;    0,000;    0,000
 888,46;  -75,670;    0,000;    0,000
 888,51;  -67,890;    0,000;    0,000
 888,55;  -81,500;    0,000;    0,000
 888,59;  -65,400;    0,000;    0,000
 888,64; -192,300;    0,000;    0,000
 888,68; -151,190;    0,000;    0,000
 888,73; -108,150;    0,000;    0,000
 888,77; -148,670;    0,000;    0,000
 888,82; -191,600;    0,000;    0,000
 888,86;  -37,650;    0,000;    0,000
 888,90; -205,160;    0,000;    0,000
 888,95;  -99,700;    0,000;    0,000
 888,99; -100,180;    0,000;    0,000
 889,04; -130,510;    0,000;    0,000
 889,08; -150,920;    0,000;    0,000
 889,12; -156,470;    0,000;    0,000
 889,17;  -89,830;    0,000;    0,000
 889,21;  -81,340;    0,000;    0,000
 889,26; -181,640;    0,000;    0,000
 889,30; -195,150;    0,000;    0,000
 889,35; -147,160;    0,000;    0,000
 889,39;  -95,400;    0,000;    0,000
 889,43;  -64,550;    0,000;    0,000
 889,48;  -99,870;    0,000;    0,000
 889,52;  -65,750;    0,000;    0,000
 889,57; -102,420;    0,000;    0,000
 889,61;  -36,460;    0,000;    0,000
 889,65; -151,200;    0,000;    0,000
 889,70; -126,460;    0,000;    0,000
 889,74;  -38,120;    0,000;    0,000
 889,79; -123,100;    0,000;    0,000
 889,83;  -71,650;    0,000;    0,000
 889,87; -101,660;    0,000;    0,000
 889,92; -134,870;    0,000;    0,000
 889,96;  -96,320;    0,000;    0,000
 890,01;  -63,500;    0,000;    0,000
 890,05; -211,910;    0,000;    0,000
 890,09; -162,600;    0,000;    0,000
 890,14;  -19,050;    0,000;    0,000
 890,18; -153,970;    0,000;    0,000
 890,23; -180,640;    0,000;    0,000
 890,27;  -69,750;    0,000;    0,000
 890,31; -124,170;    0,000;    0,000
 890,36; -141,710;    0,000;    0,000
 890,40; -102,490;    0,000;    0,000
 890,45;  -59,340;    0,000;    0,000
 890,49; -189,820;    0,000;    0,000
 890,53; -131,540;    0,000;    0,000
 890,58; -111,320;    0,000;    0,000
 890,62; -131,460;    0,000;    0,000
 890,66; -190,730;    0,000;    0,000
 890,71; -112,110;    0,000;    0,000
 890,75; -115,590;    0,000;    0,000
 890,80;  -72,300;    0,000;    0,000
 890,84; -105,230;    0,000;    0,000
 890,88;   23,520;    0,000;    0,000
 890,93; -119,920;    0,000;    0,000
 890,97;  -44,050;    0,000;    0,000
 891,01; -114,830;    0,000;    0,000
 891,06;  -81,890;    0,000;    0,000
 891,10; -164,660;    0,000;    0,000
 891,15; -181,710;    0,000;    0,000
 891,19; -115,870;    0,000;    0,000
 891,23;  -78,870;    0,000;    0,000
 891,28;  -62,410;    0,000;    0,000
 891,32;  -69,860;    0,000;    0,000
 891,36; -184,610;    0,000;    0,000
 891,41;  -89,420;    0,000;    0,000
 891,45; -102,480;    0,000;    0,000
 891,50; -130,140;    0,000;    0,000
 891,54;    5,090;    0,000;    0,000
 891,58;  -95,810;    0,000;    0,000
 891,63; -131,680;    0,000;    0,000
 891,67; -125,400;    0,000;    0,000
 891,71; -127,880;    0,000;    0,000
 891,76;  -73,620;    0,000;    0,000
 891,80; -147,350;    0,000;    0,000
 891,84; -108,760;    0,000;    0,000
 891,89;  -71,050;    0,000;    0,000
 891,93;  -68,830;    0,000;    0,000
 891,98; -199,820;    0,000;    0,000
 892,02;  -83,880;    0,000;    0,000
 892,06;  -96,040;    0,000;    0,000
 892,11;  -58,890;    0,000;    0,000
 892,15;  -71,150;    0,000;    0,000
 892,19; -119,280;    0,000;    0,000
 892,24; -133,630;    0,000;    0,000
 892,28; -102,000;    0,000;    0,000
 892,32; -185,990;    0,000;    0,000
 892,37;  -50,500;    0,000;    0,000
 892,41;  -98,730;    0,000;    0,000
 892,45; -104,980;    0,000;    0,000
 892,50;  -91,140;    0,000;    0,000
 892,54; -114,500;    0,000;    0,000
 892,59;  -40,810;    0,000;    0,000
 892,63; -140,880;    0,000;    0,000
 892,67;  -99,880;    0,000;    0,000
 892,72; -130,710;    0,000;    0,000
 892,76; -183,700;    0,000;    0,000
 892,80;  -46,970;    0,000;    0,000
 892,85; -145,660;    0,000;    0,000
 892,89; -153,770;    0,000;    0,000
 892,93; -133,350;    0,000;    0,000
 892,98;  -63,320;    0,000;    0,000
 893,02; -170,700;    0,000;    0,000
 893,06;  -39,820;    0,000;    0,000
 893,11; -171,520;    0,000;    0,000
 893,15; -104,970;    0,000;    0,000
 893,19; -154,430;    0,000;    0,000
 893,24;  -64,780;    0,000;    0,000
 893,28; -210,940;    0,000;    0,000
 893,32; -141,200;    0,000;    0,000
 893,37; -168,320;    0,000;    0,000
 893,41;  -25,000;    0,000;    0,000
 893,45; -160,210;    0,000;    0,000
 893,50; -160,520;    0,000;    0,000
 893,54;  -86,380;    0,000;    0,000
 893,58;  -88,590;    0,000;    0,000
 893,63; -174,750;    0,000;    0,000
 893,67;  -60,010;    0,000;    0,000
 893,71;  -69,710;    0,000;    0,000
 893,76;  -18,140;    0,000;    0,000
 893,80;  -64,040;    0,000;    0,000
 893,84;  -74,060;    0,000;    0,000
 893,89; -133,990;    0,000;    0,000
 893,93;  -81,410;    0,000;    0,000
 893,97;  -83,820;    0,000;    0,000
 894,02;   35,840;    0,000;    0,000
 894,06;  -69,410;    0,000;    0,000
 894,10;   94,080;    0,000;    0,000
 894,14;  341,840;    0,000;    0,000
 894,19;  314,830;    0,000;    0,000
 894,23;  -29,480;    0,000;    0,000
 894,27;  -43,560;    0,000;    0,000
 894,32;  -79,150;    0,000;    0,000
 894,36;  -98,550;    0,000;    0,000
 894,40; -124,400;    0,000;    0,000
 894,45;   -5,270;    0,000;    0,000
 894,49; -143,210;    0,000;    0,000
 894,53; -160,170;    0,000;    0,000
 894,58;  -76,340;    0,000;    0,000
 894,62;   31,140;    0,000;    0,000
 894,66;  -71,310;    0,000;    0,000
 894,71;  -73,060;    0,000;    0,000
 894,75; -143,000;    0,000;    0,000
 894,79; -122,040;    0,000;    0,000
 894,83;  -52,280;    0,000;    0,000
 894,88;  -32,460;    0,000;    0,000
 894,92; -115,110;    0,000;    0,000
 894,96;  -49,260;    0,000;    0,000
 895,01; -174,090;    0,000;    0,000
 895,05; -126,930;    0,000;    0,000
 895,09; -142,270;    0,000;    0,000
 895,14;   21,430;    0,000;    0,000
 895,18; -136,390;    0,000;    0,000
 895,22;  -59,570;    0,000;    0,000
 895,26; -172,370;    0,000;    0,000
 895,31;  -33,780;    0,000;    0,000
 895,35; -182,210;    0,000;    0,000
 895,39;  -74,150;    0,000;    0,000
 895,44; -150,170;    0,000;    0,000
 895,48;  -78,880;    0,000;    0,000
 895,52; -108,440;    0,000;    0,000
 895,57; -101,540;    0,000;    0,000
 895,61; -129,050;    0,000;    0,000
 895,65; -198,670;    0,000;    0,000
 895,69;  -70,850;    0,000;    0,000
 895,74;   53,160;    0,000;    0,000
 895,78; -158,050;    0,000;    0,000
 895,82;  -99,750;    0,000;    0,000
 895,87; -154,480;    0,000;    0,000
 895,91;  -93,690;    0,000;    0,000
 895,95; -147,580;    0,000;    0,000
 895,99; -116,350;    0,000;    0,000
 896,04; -138,120;    0,000;    0,000
 896,08; -115,230;    0,000;    0,000
 896,12; -114,810;    0,000;    0,000
 896,16; -170,590;    0,000;    0,000
 896,21; -188,790;    0,000;    0,000
 896,25; -128,180;    0,000;    0,000
 896,29; -218,890;    0,000;    0,000
 896,34;   -2,470;    0,000;    0,000
 896,38; -114,840;    0,000;    0,000
 896,42;  -18,660;    0,000;    0,000
 896,46;  -39,980;    0,000;    0,000
 896,51;    1,940;    0,000;    0,000
 896,55;   26,060;    0,000;    0,000
 896,59;  112,100;    0,000;    0,000
 896,64;  -46,360;    0,000;    0,000
 896,68;   38,120;    0,000;    0,000
 896,72; -114,310;    0,000;    0,000
 896,76;  -81,150;    0,000;    0,000
 896,81; -189,910;    0,000;    0,000
 896,85;  -87,970;    0,000;    0,000
 896,89; -109,000;    0,000;    0,000
 896,93;  -40,920;    0,000;    0,000
 896,98; -184,440;    0,000;    0,000
 897,02; -173,420;    0,000;    0,000
 897,06; -179,330;    0,000;    0,000
 897,10; -194,280;    0,000;    0,000
 897,15; -214,210;    0,000;    0,000
 897,19; -117,880;    0,000;    0,000
 897,23; -184,190;    0,000;    0,000
 897,27; -109,990;    0,000;    0,000
 897,32; -161,390;    0,000;    0,000
 897,36;   -5,960;    0,000;    0,000
 897,40; -202,500;    0,000;    0,000
 897,44;  -87,550;    0,000;    0,000
 897,49; -186,010;    0,000;    0,000
 897,53; -107,310;    0,000;    0,000
 897,57;  -98,870;    0,000;    0,000
 897,61;  -94,130;    0,000;    0,000
 897,66; -215,080;    0,000;    0,000
 897,70;  -24,640;    0,000;    0,000
 897,74; -194,400;    0,000;    0,000
 897,78;  -86,390;    0,000;    0,000
 897,83; -125,720;    0,000;    0,000
 897,87; -100,380;    0,000;    0,000
 897,91; -123,580;    0,000;    0,000
 897,95;  -82,970;    0,000;    0,000
 898,00; -135,620;    0,000;    0,000
 898,04; -106,770;    0,000;    0,000
 898,08; -191,540;    0,000;    0,000
 898,12;  -46,820;    0,000;    0,000
 898,17; -159,420;    0,000;    0,000
 898,21;  -83,750;    0,000;    0,000
 898,25; -208,940;    0,000;    0,000
 898,29;  -72,980;    0,000;    0,000
 898,34; -172,640;    0,000;    0,000
 898,38;  -63,010;    0,000;    0,000
 898,42; -230,660;    0,000;    0,000
 898,46; -120,580;    0,000;    0,000
 898,51; -172,090;    0,000;    0,000
 898,55; -154,350;    0,000;    0,000
 898,59; -212,120;    0,000;    0,000
 898,63;  -88,360;    0,000;    0,000
 898,67; -170,860;    0,000;    0,000
 898,72; -177,000;    0,000;    0,000
 898,76; -196,150;    0,000;    0,000
 898,80; -115,310;    0,000;    0,000
 898,84;  -91,660;    0,000;    0,000
 898,89;  -42,020;    0,000;    0,000
 898,93; -125,430;    0,000;    0,000
 898,97; -136,200;    0,000;    0,000
 899,01; -130,860;    0,000;    0,000
 899,06; -159,110;    0,000;    0,000
 899,10; -198,820;    0,000;    0,000
 899,14;  -70,000;    0,000;    0,000
 899,18; -168,730;    0,000;    0,000
 899,22;  -48,510;    0,000;    0,000
 899,27; -166,200;    0,000;    0,000
 899,31; -158,780;    0,000;    0,000
 899,35;    2,590;    0,000;    0,000
 899,39; -129,270;    0,000;    0,000
 899,43; -175,050;    0,000;    0,000
 899,48;  -93,260;    0,000;    0,000
 899,52; -182,050;    0,000;    0,000
 899,56;  -68,740;    0,000;    0,000
 899,60; -150,240;    0,000;    0,000
 899,65; -112,870;    0,000;    0,000
 899,69; -185,100;    0,000;    0,000
 899,73;   43,800;    0,000;    0,000
 899,77; -128,950;    0,000;    0,000
 899,81;  -72,820;    0,000;    0,000
 899,86;  -11,130;    0,000;    0,000
 899,90; -117,090;    0,000;    0,000
 899,94; -116,810;    0,000;    0,000
 899,98;  -73,490;    0,000;    0,000
 900,02; -219,790;    0,000;    0,000
 900,07; -181,230;    0,000;    0,000
 900,11;   -2,630;    0,000;    0,000
 900,15; -118,760;    0,000;    0,000
 900,19; -222,410;    0,000;    0,000
 900,23;  -34,540;    0,000;    0,000
 900,28; -125,950;    0,000;    0,000
 900,32; -110,640;    0,000;    0,000
 900,36; -219,540;    0,000;    0,000
 900,40;  -97,620;    0,000;    0,000
 900,44; -117,030;    0,000;    0,000
 900,49;  -23,820;    0,000;    0,000
 900,53; -137,670;    0,000;    0,000
 900,57; -108,110;    0,000;    0,000
 900,61; -177,030;    0,000;    0,000
 900,65;  -83,510;    0,000;    0,000
 900,70; -113,630;    0,000;    0,000
 900,74;  -68,690;    0,000;    0,000
 900,78; -182,700;    0,000;    0,000
 900,82;  -89,770;    0,000;    0,000
 900,86; -105,700;    0,000;    0,000
 900,90;  -93,410;    0,000;    0,000
 900,95;  -78,370;    0,000;    0,000
 900,99;   42,750;    0,000;    0,000
 901,03; -222,050;    0,000;    0,000
 901,07; -124,480;    0,000;    0,000
 901,11;  -89,490;    0,000;    0,000
 901,16;  -28,620;    0,000;    0,000
 901,20; -116,240;    0,000;    0,000
 901,24; -148,120;    0,000;    0,000
 901,28; -114,630;    0,000;    0,000
 901,32; -119,660;    0,000;    0,000
 901,36; -211,000;    0,000;    0,000
 901,41; -137,850;    0,000;    0,000
 901,45; -101,000;    0,000;    0,000
 901,49; -149,290;    0,000;    0,000
 901,53; -167,820;    0,000;    0,000
 901,57;  -34,090;    0,000;    0,000
 901,61; -161,490;    0,000;    0,000
 901,66;  -63,390;    0,000;    0,000
 901,70;  -65,260;    0,000;    0,000
 901,74; -173,610;    0,000;    0,000
 901,78; -100,040;    0,000;    0,000
 901,82;  -67,720;    0,000;    0,000
 901,86; -185,870;    0,000;    0,000
 901,91; -145,740;    0,000;    0,000
 901,95; -122,270;    0,000;    0,000
 901,99;    3,060;    0,000;    0,000
 902,03; -177,050;    0,000;    0,000
 902,07; -164,000;    0,000;    0,000
 902,11;  -86,550;    0,000;    0,000
 902,16;  -83,360;    0,000;    0,000
 902,20; -144,340;    0,000;    0,000
 902,24;  -89,150;    0,000;    0,000
 902,28; -189,270;    0,000;    0,000
 902,32;  -38,830;    0,000;    0,000
 902,36; -123,090;    0,000;    0,000
 902,41; -112,240;    0,000;    0,000
 902,45; -151,880;    0,000;    0,000
 902,49; -102,500;    0,000;    0,000
 902,53; -156,490;    0,000;    0,000
 902,57; -122,340;    0,000;    0,000
 902,61;  -82,280;    0,000;    0,000
 902,65; -160,470;    0,000;    0,000
 902,70; -212,240;    0,000;    0,000
 902,74; -106,930;    0,000;    0,000
 902,78; -128,830;    0,000;    0,000
 902,82;  -14,770;    0,000;    0,000
 902,86; -169,980;    0,000;    0,000
 902,90; -101,280;    0,000;    0,000
 902,95; -190,340;    0,000;    0,000
 902,99;  -59,520;    0,000;    0,000
 903,03; -129,640;    0,000;    0,000
 903,07; -132,340;    0,000;    0,000
 903,11; -183,210;    0,000;    0,000
 903,15;  -87,230;    0,000;    0,000
 903,19; -195,240;    0,000;    0,000
 903,24; -102,020;    0,000;    0,000
 903,28; -142,810;    0,000;    0,000
 903,32;  -68,360;    0,000;    0,000
 903,36; -172,280;    0,000;    0,000
 903,40; -103,700;    0,000;    0,000
 903,44; -110,940;    0,000;    0,000
 903,48; -111,390;    0,000;    0,000
 903,52; -102,630;    0,000;    0,000
 903,57; -140,610;    0,000;    0,000
 903,61; -167,670;    0,000;    0,000
 903,65;  -22,680;    0,000;    0,000
 903,69; -173,610;    0,000;    0,000
 903,73;  -85,140;    0,000;    0,000
 903,77; -180,960;    0,000;    0,000
 903,81; -166,820;    0,000;    0,000
 903,85; -113,740;    0,000;    0,000
 903,90; -135,950;    0,000;    0,000
 903,94; -129,870;    0,000;    0,000
 903,98;  -98,890;    0,000;    0,000
 904,02; -138,100;    0,000;    0,000
 904,06;  -68,860;    0,000;    0,000
 904,10; -111,390;    0,000;    0,000
 904,14;  -53,120;    0,000;    0,000
 904,18; -158,370;    0,000;    0,000
 904,23;   -6,450;    0,000;    0,000
 904,27; -152,690;    0,000;    0,000
 904,31;  -42,960;    0,000;    0,000
 904,35; -187,710;    0,000;    0,000
 904,39;  -65,640;    0,000;    0,000
 904,43; -148,980;    0,000;    0,000
 904,47;   -8,800;    0,000;    0,000
 904,51; -167,630;    0,000;    0,000
 904,55;  -89,340;    0,000;    0,000
 904,60;  -77,990;    0,000;    0,000
 904,64; -126,200;    0,000;    0,000
 904,68; -171,510;    0,000;    0,000
 904,72;  -16,460;    0,000;    0,000
 904,76;    8,850;    0,000;    0,000
 904,80; -134,320;    0,000;    0,000
 904,84; -166,060;    0,000;    0,000
 904,88;  -79,360;    0,000;    0,000
 904,92;  -85,680;    0,000;    0,000
 904,97;  -56,260;    0,000;    0,000
 905,01; -117,550;    0,000;    0,000
 905,05;  -41,230;    0,000;    0,000
 905,09;  -50,720;    0,000;    0,000
 905,13; -121,770;    0,000;    0,000
 905,17; -189,780;    0,000;    0,000
 905,21;  -37,140;    0,000;    0,000
 905,25;  -93,510;    0,000;    0,000
 905,29;  -66,640;    0,000;    0,000
 905,33; -111,370;    0,000;    0,000
 905,38;   58,580;    0,000;    0,000
 905,42; -182,700;    0,000;    0,000
 905,46;  -97,530;    0,000;    0,000
 905,50; -135,620;    0,000;    0,000
 905,54;  -69,120;    0,000;    0,000
 905,58; -161,220;    0,000;    0,000
 905,62; -152,260;    0,000;    0,000
 905,66; -160,340;    0,000;    0,000
 905,70;  -43,560;    0,000;    0,000
 905,74; -158,650;    0,000;    0,000
 905,78;  -88,140;    0,000;    0,000
 905,83; -106,870;    0,000;    0,000
 905,87;  -81,130;    0,000;    0,000
 905,91;  -19,760;    0,000;    0,000
 905,95;  -32,060;    0,000;    0,000
 905,99; -115,090;    0,000;    0,000
 906,03;  -14,730;    0,000;    0,000
 906,07;   -2,160;    0,000;    0,000
 906,11;   49,650;    0,000;    0,000
 906,15;  -40,910;    0,000;    0,000
 906,19;  -10,510;    0,000;    0,000
 906,23;  -43,920;    0,000;    0,000
 906,27;  -35,880;    0,000;    0,000
 906,31; -117,530;    0,000;    0,000
 906,36;    8,150;    0,000;    0,000
 906,40; -111,730;    0,000;    0,000
 906,44;  -28,730;    0,000;    0,000
 906,48; -148,500;    0,000;    0,000
 906,52;  -30,370;    0,000;    0,000
 906,56; -186,330;    0,000;    0,000
 906,60;  -26,430;    0,000;    0,000
 906,64;  -67,500;    0,000;    0,000
 906,68;  -74,490;    0,000;    0,000
 906,72; -100,020;    0,000;    0,000
 906,76; -105,030;    0,000;    0,000
 906,80; -199,750;    0,000;    0,000
 906,84;  -62,860;    0,000;    0,000
 906,88;  -59,410;    0,000;    0,000
 906,92; -101,360;    0,000;    0,000
 906,97; -179,530;    0,000;    0,000
 907,01;  -23,690;    0,000;    0,000
 907,05; -191,430;    0,000;    0,000
 907,09; -115,080;    0,000;    0,000
 907,13;  -81,100;    0,000;    0,000
 907,17;   10,900;    0,000;    0,000
 907,21; -112,630;    0,000;    0,000
 907,25; -131,560;    0,000;    0,000
 907,29; -143,960;    0,000;    0,000
 907,33;  -76,890;    0,000;    0,000
 907,37;  -51,460;    0,000;    0,000
 907,41;   -4,810;    0,000;    0,000
 907,45;  -55,430;    0,000;    0,000
 907,49;  -12,800;    0,000;    0,000
 907,53; -123,800;    0,000;    0,000
 907,57; -126,790;    0,000;    0,000
 907,61;  -88,360;    0,000;    0,000
 907,65;  -76,600;    0,000;    0,000
 907,70;  -89,250;    0,000;    0,000
 907,74; -125,890;    0,000;    0,000
 907,78;  -74,250;    0,000;    0,000
 907,82;   76,020;    0,000;    0,000
 907,86;  315,380;    0,000;    0,000
 907,90;  -76,570;    0,000;    0,000
 907,94;  -40,200;    0,000;    0,000
 907,98;  -51,080;    0,000;    0,000
 908,02; -136,140;    0,000;    0,000
 908,06;  -47,700;    0,000;    0,000
 908,10; -164,500;    0,000;    0,000
 908,14;  -72,790;    0,000;    0,000
 908,18;   20,170;    0,000;    0,000
 908,22;  -77,270;    0,000;    0,000
 908,26;  -53,570;    0,000;    0,000
 908,30; -115,640;    0,000;    0,000
 908,34;  -78,530;    0,000;    0,000
 908,38;  -50,910;    0,000;    0,000
 908,42; -138,180;    0,000;    0,000
 908,46;  -90,890;    0,000;    0,000
 908,50; -128,530;    0,000;    0,000
 908,54;  -63,230;    0,000;    0,000
 908,58; -177,830;    0,000;    0,000
 908,62;  -96,920;    0,000;    0,000
 908,66;  -98,820;    0,000;    0,000
 908,70; -130,340;    0,000;    0,000
 908,74; -166,420;    0,000;    0,000
 908,78; -108,930;    0,000;    0,000
 908,82;  -75,630;    0,000;    0,000
 908,86; -100,950;    0,000;    0,000
 908,90; -138,980;    0,000;    0,000
 908,95;  -35,170;    0,000;    0,000
 908,99;  -91,170;    0,000;    0,000
 909,03;  -12,080;    0,000;    0,000
 909,07; -154,320;    0,000;    0,000
 909,11;    3,940;    0,000;    0,000
 909,15;  -37,650;    0,000;    0,000
 909,19;  -29,020;    0,000;    0,000
 909,23;  -95,970;    0,000;    0,000
 909,27;  -64,010;    0,000;    0,000
 909,31; -111,990;    0,000;    0,000
 909,35; -172,470;    0,000;    0,000
 909,39; -136,030;    0,000;    0,000
 909,43;    7,280;    0,000;    0,000
 909,47;  -84,190;    0,000;    0,000
 909,51;    4,740;    0,000;    0,000
 909,55; -119,100;    0,000;    0,000
 909,59;  -73,900;    0,000;    0,000
 909,63;  -76,550;    0,000;    0,000
 909,67;  -42,160;    0,000;    0,000
 909,71; -151,060;    0,000;    0,000
 909,75;  -15,980;    0,000;    0,000
 909,79; -105,400;    0,000;    0,000
 909,83;  -88,870;    0,000;    0,000
 909,87; -116,230;    0,000;    0,000
 909,91;   18,330;    0,000;    0,000
 909,95;  -83,280;    0,000;    0,000
 909,99;  -97,960;    0,000;    0,000
 910,03; -119,100;    0,000;    0,000
 910,07;  -99,110;    0,000;    0,000
 910,11;  -72,480;    0,000;    0,000

